LabVIEW Measurement	
Writer_Version	2
Reader_Version	2
Separator	Tab
Decimal_Separator	.
Multi_Headings	No
X_Columns	One
Time_Pref	Absolute
Operator	stocknot
Date	2022/03/22
Time	13:37:51.1254801750183105469
***End_of_Header***	
	
Notes	X values guaranteed valid only for Extensometer Displacement-mm (Mean)				
Channels	4				
Samples	1	1	1	1	
Date	2022/03/22	2022/03/22	2022/03/22	2022/03/22	
Time	13:37:51.1254801750183105469	13:37:51.1254801750183105469	13:37:51.1254801750183105469	13:37:51.128940582275390625	
Y_Unit_Label	Volts	Volts	Volts	Volts	
X_Dimension	Time	Time	Time	Time	
X0	0.0000000000000000E+0	0.0000000000000000E+0	0.0000000000000000E+0	9.9000000000000005E-2	
Delta_X	0.100000	0.100000	0.100000	0.100000	
***End_of_Header***					
X_Value	Extensometer Displacement-mm (Mean)	Force-N (Mean)	Global Displacement-mm (Mean)	Global Displacement-mm (Mean) 1	Comment
0.000000	0.002214	-0.318867	0.004878	-0.005052
0.100000	0.006306	0.780189	-6.648757E-5	0.013220
0.200000	0.005944	2.572612	0.004872	0.023048
0.300000	0.005363	0.089296	0.002461	-0.061130
0.400000	0.004270	-0.653462	0.013917	0.066495
0.500000	0.008627	-1.350752	0.003249	0.051856
0.600000	0.000613	-0.703352	-0.017420	-0.106592
0.700000	0.007638	-0.003545	-0.012412	-0.095096
0.800000	0.001476	-0.185119	-0.002901	0.020021
0.900000	0.004057	0.095981	0.002530	-0.000283
1.000000	0.007505	-1.143779	-0.014251	-0.081422
1.100000	0.001078	0.668202	0.005942	0.033396
1.200000	0.010077	-0.500200	-0.011597	-0.073172
1.300000	0.004291	0.522256	0.021731	0.080745
1.400000	-0.001165	3.723816	-0.004183	-0.075581
1.500000	-0.005220	3.570365	0.001928	-0.005468
1.600000	0.003248	3.831576	0.013606	0.123090
1.700000	-0.000586	7.318698	0.084505	0.392199
1.800000	0.004993	8.344599	0.133711	0.562446
1.900000	0.001115	11.272447	0.163886	0.665866
2.000000	-0.003155	11.972064	0.239384	1.056017
2.100000	0.002272	11.261898	0.282212	1.136994
2.200000	-0.000933	16.929415	0.332253	1.436794
2.300000	0.001008	18.092993	0.401237	1.563407
2.400000	0.001371	24.227743	0.447785	1.877473
2.500000	0.006434	24.878282	0.486006	2.014594
2.600000	0.002827	15.361011	0.495060	2.022561
2.700000	0.004145	17.587556	0.487627	1.687322
2.800000	0.001974	19.986831	0.506845	1.564561
2.900000	0.004724	23.073088	0.479517	1.328309
3.000000	0.005191	26.446028	0.433651	0.825728
3.100000	0.007899	30.446695	0.418591	0.576954
3.200000	0.005457	34.820137	0.407975	0.321284
3.300000	-0.001132	42.784426	0.409386	0.052766
3.400000	0.003265	49.474905	0.433851	-0.058131
3.500000	-0.001714	54.621532	0.466542	-0.088257
3.600000	0.009508	59.895163	0.496300	0.001090
3.700000	0.003315	67.739250	0.511814	0.106302
3.800000	0.001437	74.092958	0.528255	0.081974
3.900000	0.006914	82.268098	0.532426	0.215920
4.000000	0.005095	87.336961	0.588126	0.632135
4.100000	0.008477	95.317047	0.631246	0.877082
4.200000	0.014713	103.175762	0.681901	1.135274
4.300000	0.011838	110.286739	0.716588	1.274894
4.400000	0.008314	119.845255	0.777762	1.428253
4.500000	0.010914	127.566960	0.825779	1.508019
4.600000	0.011504	138.351110	0.842354	1.438141
4.700000	0.014257	148.596498	0.902325	1.616510
4.800000	0.013271	158.211560	0.949246	1.754323
4.900000	0.018819	166.823758	0.965969	1.803571
5.000000	0.016580	177.525389	1.023963	1.820550
5.100000	0.029793	183.234791	1.048793	1.742840
5.200000	0.013137	194.257490	1.109098	1.784138
5.300000	0.021869	205.790379	1.179952	1.928120
5.400000	0.028804	213.736683	1.192456	1.738894
5.500000	0.026725	226.796659	1.246748	1.751428
5.600000	0.030841	235.719010	1.286305	1.853460
5.700000	0.022594	245.048192	1.315089	1.731806
5.800000	0.024748	256.239035	1.336196	1.607245
5.900000	0.028203	268.315988	1.392743	1.790642
6.000000	0.030446	284.388581	1.421138	1.658234
6.100000	0.036206	301.157273	1.451848	1.675073
6.200000	0.037937	314.164919	1.472564	1.525536
6.300000	0.038046	326.062585	1.488130	1.288713
6.400000	0.035721	339.226562	1.518058	1.351370
6.500000	0.036293	349.294562	1.561602	1.321705
6.600000	0.039484	365.900134	1.597700	1.295700
6.700000	0.049904	377.032806	1.632633	1.323520
6.800000	0.044799	387.504446	1.650171	1.314862
6.900000	0.044193	399.801689	1.674577	1.169011
7.000000	0.042117	412.462582	1.677634	1.074546
7.100000	0.038767	426.738648	1.716611	1.109467
7.200000	0.051189	437.085614	1.765991	1.208280
7.300000	0.052353	450.925482	1.812385	1.358874
7.400000	0.043472	462.419883	1.823962	1.284194
7.500000	0.053414	472.222934	1.854308	1.222558
7.600000	0.056448	480.398890	1.862926	1.110918
7.700000	0.052900	491.988368	1.860457	0.952709
7.800000	0.059751	503.161945	1.901719	1.042069
7.900000	0.059524	509.512035	1.941122	1.120245
8.000000	0.052773	517.576587	1.936113	1.074778
8.100000	0.055610	531.359689	1.965519	1.037033
8.200000	0.059134	540.909989	1.993015	0.960428
8.300000	0.051337	551.977304	2.029906	0.903613
8.400000	0.056137	569.285360	2.060168	0.977729
8.500000	0.066701	581.317227	2.077135	0.929176
8.600000	0.057490	591.608083	2.103224	0.998228
8.700000	0.065433	604.450328	2.150539	1.207971
8.800000	0.060325	611.725783	2.163136	1.097111
8.900000	0.069070	621.977980	2.164246	0.933302
9.000000	0.072403	633.099840	2.202259	1.102578
9.100000	0.073639	641.865620	2.203553	0.997867
9.200000	0.073780	652.686126	2.237695	1.022017
9.300000	0.063655	663.045882	2.250370	0.919260
9.400000	0.067220	671.727227	2.279194	0.922636
9.500000	0.072881	682.784828	2.300497	0.929157
9.600000	0.081299	692.286865	2.328997	0.945257
9.700000	0.082918	705.148272	2.345633	0.806777
9.800000	0.082006	719.531484	2.378774	0.902567
9.900000	0.090463	728.810943	2.413780	1.040079
10.000000	0.084935	737.310903	2.420355	0.915403
10.100000	0.085392	744.517990	2.438522	0.968949
10.200000	0.088425	752.395697	2.433845	0.825094
10.300000	0.086119	758.965165	2.451289	0.841254
10.400000	0.083458	764.552267	2.455603	0.731977
10.500000	0.085753	773.401960	2.486206	0.783174
10.600000	0.093535	785.344200	2.496499	0.692604
10.700000	0.088703	794.231239	2.537910	0.806906
10.800000	0.093251	795.756653	2.533228	0.654041
10.900000	0.087363	807.747130	2.546289	0.543409
11.000000	0.090817	811.765235	2.556464	0.569371
11.100000	0.097445	819.730523	2.577180	0.587619
11.200000	0.088904	823.265452	2.565377	0.542809
11.300000	0.090256	824.695809	2.582899	0.542807
11.400000	0.091202	824.451544	2.591867	0.577072
11.500000	0.090710	820.382580	2.589569	0.426512
11.600000	0.093398	820.421288	2.598489	0.437609
11.700000	0.095806	816.861955	2.595968	0.245800
11.800000	0.085076	811.808287	2.637283	0.420223
11.900000	0.099871	811.625505	2.695881	0.623419
12.000000	0.089808	813.450094	2.686703	0.548879
12.100000	0.093107	808.368306	2.691696	0.472421
12.200000	0.088085	808.615144	2.675604	0.464724
12.300000	0.093590	808.988004	2.699844	0.496420
12.400000	0.097805	807.023407	2.680018	0.359981
12.500000	0.095891	810.280762	2.691525	0.425719
12.600000	0.089273	809.356772	2.685709	0.360515
12.700000	0.095356	809.458091	2.691206	0.397679
12.800000	0.096343	807.768233	2.691167	0.240161
12.900000	0.081548	807.738922	2.687630	-0.032221
13.000000	0.076710	809.034987	2.709650	0.095565
13.100000	0.106139	809.607708	2.682648	-0.033276
13.200000	0.114278	806.768875	2.696739	0.084629
13.300000	0.086770	807.940033	2.684096	-0.067638
13.400000	0.107563	806.711461	2.679606	0.008015
13.500000	0.105922	806.699084	2.684422	-0.029423
13.600000	0.098234	809.000814	2.689358	0.010577
13.700000	0.127730	808.742112	2.693934	0.018585
13.800000	0.139131	808.234589	2.692956	-0.007052
13.900000	0.131378	807.927481	2.684259	-0.005155
14.000000	0.185786	808.099960	2.686600	-0.105243
14.100000	0.213751	808.785117	2.679770	-0.011480
14.200000	0.103015	806.852740	2.697049	0.005095
14.300000	-2.094490	804.396813	2.695398	0.038866
14.400000	-2.961649	808.363184	2.690110	0.045206
14.500000	-3.882860	807.326261	2.704312	0.084443
14.600000	-4.788281	809.150190	2.688919	0.002314
14.700000	-5.512547	806.903833	2.687501	-0.036010
14.800000	-6.110397	806.464653	2.709235	0.081368
14.900000	-6.574274	807.698175	2.693987	0.033401
15.000000	-6.715786	806.513093	2.697931	0.050651
15.100000	-6.391289	805.066487	2.716019	0.147912
15.200000	-5.504516	803.988335	2.703347	0.031064
15.300000	-3.556802	807.106803	2.709584	0.057818
15.400000	-2.869245	805.747949	2.699294	0.041814
15.500000	-2.914323	806.415549	2.698401	-0.031099
15.600000	-3.134729	807.310129	2.709865	0.086891
15.700000	-3.313988	806.331423	2.688473	0.006510
15.800000	-3.744934	808.359684	2.707959	-0.000607
15.900000	-3.717456	806.457643	2.694796	0.004580
16.000000	-3.316502	804.940225	2.694579	-0.018460
16.100000	-2.654401	804.593874	2.704912	-0.042487
16.200000	-2.915055	805.304861	2.691716	-0.056764
16.300000	-2.125393	804.149293	2.694686	-0.054835
16.400000	-1.034156	805.654893	2.696899	-0.021345
16.500000	-2.394263	806.914468	2.708862	0.046833
16.600000	-2.103455	805.321705	2.701192	-0.035339
16.700000	-2.610240	803.785282	2.705011	0.080156
16.800000	-3.060837	806.813715	2.696763	-0.060577
16.900000	-4.779810	806.022080	2.681059	-0.059130
17.000000	-6.380028	807.090102	2.721001	0.118394
17.100000	-6.185584	807.008059	2.699724	-0.021812
17.200000	-5.470259	805.793090	2.700676	0.038557
17.300000	-4.621105	805.867187	2.691347	-0.014990
17.400000	-4.219034	804.233920	2.691149	-0.022556
17.500000	-4.213147	805.845754	2.686305	-0.088233
17.600000	-4.559117	805.391528	2.679477	-0.088967
17.700000	-4.733573	806.234774	2.701475	-0.019799
17.800000	-4.262177	804.746616	2.693048	-0.017044
17.900000	-1.748701	805.597706	2.705494	0.105173
18.000000	-1.355537	809.447309	2.695304	-0.104314
18.100000	-1.005644	805.228317	2.695048	-0.025492
18.200000	-1.020880	807.447633	2.688033	-0.048954
18.300000	-1.115256	804.599536	2.699155	0.030008
18.400000	-1.248204	807.057731	2.674865	-0.069811
18.500000	-1.364979	806.166084	2.689889	0.012360
18.600000	-1.387161	810.161996	2.705056	0.105564
18.700000	-1.353607	820.676662	2.706642	0.016562
18.800000	-1.415805	840.630079	2.682724	-0.033091
18.900000	-1.776358	853.339669	2.703908	-0.012698
19.000000	-1.586183	862.179918	2.702690	0.030378
19.100000	-1.328700	871.712141	2.694420	-0.002831
19.200000	-1.126378	884.148239	2.710999	0.089572
19.300000	-1.121097	893.912002	2.729631	0.132522
19.400000	-1.224423	906.806068	2.739745	0.269948
19.500000	-1.226845	920.168415	2.774100	0.347311
19.600000	-1.414604	937.941925	2.810309	0.430295
19.700000	-1.604177	947.722150	2.838532	0.547319
19.800000	-1.723816	957.020908	2.859386	0.735658
19.900000	-1.799458	970.968127	2.886215	0.756437
20.000000	-1.655226	981.518980	2.881672	0.741740
20.100000	-1.552351	993.380896	2.923037	0.955767
20.200000	-1.466921	1010.128572	2.970192	1.076702
20.300000	-1.455576	1021.247997	2.976907	1.026657
20.400000	-1.399488	1031.328414	3.002474	1.095617
20.500000	-1.478474	1042.797374	3.052576	1.160414
20.600000	-1.635885	1055.497107	3.101716	1.221089
20.700000	-1.710465	1066.859500	3.108692	1.126812
20.800000	-1.493614	1075.950088	3.144770	1.183752
20.900000	-1.351309	1083.880187	3.163085	1.151891
21.000000	-1.385546	1095.212743	3.198142	1.324509
21.100000	-1.314914	1102.696067	3.221612	1.242873
21.200000	-0.994958	1111.138244	3.266763	1.239800
21.300000	-0.527802	1117.180025	3.319751	1.419294
21.400000	-0.752046	1123.775284	3.334241	1.389790
21.500000	-0.631099	1129.407199	3.376083	1.346035
21.600000	-0.458330	1131.242081	3.416855	1.316529
21.700000	-0.470104	1137.648036	3.449293	1.422927
21.800000	-0.308303	1140.066427	3.471279	1.359666
21.900000	-0.461491	1141.710514	3.508660	1.438940
22.000000	-0.516257	1146.295759	3.544620	1.440159
22.100000	-0.491281	1152.045501	3.605592	1.600235
22.200000	-0.514723	1152.240815	3.645332	1.581922
22.300000	-0.562863	1157.238986	3.688900	1.543572
22.400000	-0.588465	1156.404784	3.717290	1.590913
22.500000	-0.638628	1163.051078	3.746046	1.549753
22.600000	-0.637764	1166.052140	3.793533	1.571932
22.700000	-0.628761	1165.388660	3.816321	1.526064
22.800000	-0.849843	1166.757442	3.831656	1.502297
22.900000	-0.519753	1171.243633	3.892012	1.611319
23.000000	-0.062286	1176.734787	3.922119	1.566990
23.100000	-0.070815	1174.318399	3.971269	1.524551
23.200000	-0.133689	1174.912489	3.993490	1.461831
23.300000	-0.166269	1179.107244	4.021694	1.386291
23.400000	-0.006205	1181.353137	4.061087	1.437428
23.500000	0.085115	1184.891947	4.085910	1.420236
23.600000	0.105168	1184.970029	4.129252	1.396655
23.700000	0.082697	1188.518837	4.165400	1.448215
23.800000	0.086069	1192.112287	4.214204	1.604682
23.900000	0.096043	1191.959915	4.241669	1.454224
24.000000	0.117078	1193.023643	4.255886	1.398513
24.100000	0.145685	1194.854907	4.299627	1.365256
24.200000	0.114291	1198.525220	4.348403	1.476772
24.300000	0.110126	1201.076542	4.391007	1.542664
24.400000	0.106608	1202.727770	4.397237	1.401830
24.500000	0.111292	1204.599510	4.441611	1.477336
24.600000	0.106078	1206.644780	4.485146	1.489226
24.700000	0.115820	1208.106892	4.504682	1.425213
24.800000	0.044567	1209.663608	4.543820	1.366996
24.900000	0.039850	1212.926304	4.594691	1.467941
25.000000	0.019642	1211.986202	4.622526	1.533316
25.100000	0.007068	1209.339118	4.636421	1.413917
25.200000	-0.012498	1213.659058	4.664586	1.314174
25.300000	-0.045425	1219.073896	4.710151	1.333314
25.400000	-0.069538	1221.619999	4.748686	1.465752
25.500000	-0.098632	1223.686072	4.772451	1.379697
25.600000	-0.155156	1220.153473	4.800072	1.315909
25.700000	-0.164710	1223.812986	4.843792	1.400639
25.800000	-0.154183	1229.758294	4.896858	1.485488
25.900000	-0.131078	1231.210446	4.913357	1.333483
26.000000	-0.095240	1227.490342	4.964294	1.418385
26.100000	-0.097418	1231.904795	4.994151	1.490492
26.200000	-0.108249	1234.878268	5.037733	1.555041
26.300000	-0.119204	1234.628267	5.100995	1.624725
26.400000	-0.127806	1234.759204	5.134326	1.611567
26.500000	-0.116253	1238.237517	5.153378	1.591437
26.600000	-0.087959	1239.256459	5.194554	1.640922
26.700000	-0.116980	1242.980737	5.236046	1.646933
26.800000	-0.114970	1240.607953	5.269347	1.550448
26.900000	-0.078550	1235.370577	5.280113	1.531167
27.000000	-0.076313	1247.032957	5.324018	1.501407
27.100000	-0.069797	1247.511698	5.359371	1.520756
27.200000	-0.022105	1247.742713	5.381051	1.437038
27.300000	-0.025449	1250.311523	5.428548	1.372145
27.400000	-0.007607	1246.664490	5.464363	1.375020
27.500000	-0.014060	1252.106639	5.544889	1.622431
27.600000	0.006202	1254.154849	5.588045	1.646044
27.700000	0.017697	1257.562443	5.632761	1.655335
27.800000	0.018070	1253.612661	5.662438	1.627453
27.900000	0.038189	1258.112140	5.707633	1.787259
28.000000	0.031703	1257.338669	5.737914	1.721850
28.100000	0.046112	1255.501108	5.785714	1.784937
28.200000	0.057484	1257.698825	5.826974	1.858315
28.300000	0.058450	1258.790033	5.878458	1.871598
28.400000	0.067168	1260.931091	5.924918	1.924646
28.500000	0.066854	1263.190339	5.956446	1.716037
28.600000	0.066509	1261.806223	6.001660	1.730245
28.700000	0.075081	1266.019215	6.048996	1.735102
28.800000	0.074645	1266.060184	6.106941	1.850308
28.900000	0.082010	1263.901648	6.175558	1.946787
29.000000	0.077255	1262.629186	6.195966	1.924586
29.100000	0.082634	1265.819477	6.246498	1.909888
29.200000	0.074740	1266.121116	6.268773	1.851185
29.300000	0.078194	1263.062539	6.303407	1.773343
29.400000	0.056678	1257.898217	6.324043	1.664667
29.500000	0.069084	1256.665154	6.344719	1.629102
29.600000	0.060689	1267.547719	6.370501	1.537112
29.700000	0.040056	1270.215292	6.377963	1.366386
29.800000	0.004610	1272.943472	6.441115	1.417369
29.900000	-0.007355	1269.770508	6.456516	1.173046
30.000000	-0.001580	1265.539162	6.487088	1.204516
30.100000	0.001973	1270.431409	6.521375	1.150444
30.200000	0.001313	1271.445230	6.561923	1.221781
30.300000	0.007690	1273.057177	6.591702	1.202761
30.400000	0.001723	1271.119114	6.658476	1.390622
30.500000	0.009543	1269.993504	6.707170	1.509814
30.600000	0.022193	1274.588058	6.751085	1.582707
30.700000	0.010521	1273.220760	6.785570	1.704792
30.800000	0.010317	1268.626034	6.812637	1.541194
30.900000	0.002887	1271.645142	6.864590	1.697061
31.000000	0.025239	1272.781501	6.883758	1.658676
31.100000	0.012474	1272.971249	6.905462	1.609616
31.200000	0.013201	1271.686332	6.961841	1.662439
31.300000	0.018999	1268.892884	6.985978	1.643480
31.400000	0.061059	1272.757441	7.013772	1.497792
31.500000	0.089224	1271.141481	7.077987	1.538641
31.600000	0.088038	1269.916511	7.120512	1.536954
31.700000	0.103355	1264.049281	7.165217	1.590287
31.800000	0.101913	1261.250389	7.181452	1.537834
31.900000	0.100242	1259.245070	7.236153	1.548858
32.000000	0.109832	1248.952990	7.288686	1.687656
32.100000	0.101652	1236.549388	7.309456	1.687231
32.200000	0.097410	1224.723546	7.335712	1.550375
32.300000	0.102808	1201.597366	7.381263	1.654379
32.400000	0.112510	1178.619729	7.420080	1.685952
32.500000	0.101158	795.825857	7.400361	1.379297
32.600000	0.091744	7.690924	7.296994	0.753283
32.700000	0.096802	4.428249	7.293329	0.529610
32.800000	0.100095	5.669675	7.313334	0.554212
32.900000	0.084173	2.438626	7.315342	0.340074
33.000000	0.101939	2.082439	7.325188	0.155466
33.100000	0.097141	1.232991	7.311898	0.010411
33.200000	0.092512	0.824373	7.342111	0.040757
33.300000	0.086263	4.298184	7.329134	-0.213662
33.400000	0.084331	0.612156	7.333273	-0.346688
33.500000	0.081937	2.198593	7.320549	-0.371284
33.600000	0.073986	2.696515	7.320737	0.094955
33.700000	0.091496	3.167820	7.334838	0.180927
33.800000	0.087463	3.916349	7.312466	-0.000216
33.900000	0.076519	3.995816	7.338993	0.096999
34.000000	0.083669	2.853076	7.317019	-0.030445
