LabVIEW Measurement	
Writer_Version	2
Reader_Version	2
Separator	Tab
Decimal_Separator	.
Multi_Headings	No
X_Columns	One
Time_Pref	Absolute
Operator	stocknot
Date	2022/03/22
Time	13:36:00.4523749351501464844
***End_of_Header***	
	
Notes	X values guaranteed valid only for Extensometer Displacement-mm (Mean)				
Channels	4				
Samples	1	1	1	1	
Date	2022/03/22	2022/03/22	2022/03/22	2022/03/22	
Time	13:36:00.4523749351501464844	13:36:00.4523749351501464844	13:36:00.4523749351501464844	13:36:00.4541440010070800782	
Y_Unit_Label	Volts	Volts	Volts	Volts	
X_Dimension	Time	Time	Time	Time	
X0	0.0000000000000000E+0	0.0000000000000000E+0	0.0000000000000000E+0	9.9000000000000005E-2	
Delta_X	0.100000	0.100000	0.100000	0.100000	
***End_of_Header***					
X_Value	Extensometer Displacement-mm (Mean)	Force-N (Mean)	Global Displacement-mm (Mean)	Global Displacement-mm (Mean) 1	Comment
0.000000	-0.014300	-1.822044	-0.024051	-0.053205
0.100000	-0.011407	-0.933997	-0.019924	-0.001674
0.200000	-0.017269	-0.829074	-0.031140	-0.017409
0.300000	-0.016753	-0.327195	-0.028592	-0.054494
0.400000	-0.018892	-1.339705	-0.000897	0.125719
0.500000	-0.017152	-1.921107	-0.025687	-0.032333
0.600000	-0.022989	-1.930694	-0.034769	-0.045100
0.700000	-0.018847	3.488055	-0.030699	0.018908
0.800000	-0.015585	6.165116	-0.014830	0.012833
0.900000	-0.009221	10.486342	0.094555	0.481742
1.000000	-0.012116	14.493796	0.184996	0.869841
1.100000	-0.010954	21.268914	0.281581	1.240382
1.200000	-0.024558	23.422319	0.317255	1.448368
1.300000	-0.018788	19.227838	0.341350	1.538952
1.400000	-0.016962	13.610143	0.342670	1.441686
1.500000	-0.025440	14.194175	0.341165	1.518254
1.600000	-0.012667	20.319282	0.341035	1.574612
1.700000	-0.013076	28.356833	0.243199	1.152821
1.800000	-0.017621	33.908776	0.173391	0.800511
1.900000	-0.002035	46.228788	0.235423	0.595291
2.000000	-0.017317	53.439376	0.284547	0.417486
2.100000	-0.016450	64.040433	0.305406	0.113587
2.200000	-0.018241	74.741131	0.310512	-0.015656
2.300000	-0.007882	88.193100	0.325544	-0.067477
2.400000	-0.011454	100.761231	0.396942	0.204642
2.500000	-0.009808	111.154154	0.429384	0.367632
2.600000	-0.009698	123.999650	0.502318	0.657308
2.700000	-0.008693	136.510657	0.554563	1.277380
2.800000	-0.012628	149.815297	0.603177	1.776586
2.900000	-0.004536	165.933539	0.644473	1.716206
3.000000	-0.010737	178.162417	0.701421	1.739449
3.100000	0.002055	195.539981	0.761850	1.896719
3.200000	-0.006361	202.928545	0.816836	2.093461
3.300000	-0.004456	216.448795	0.849209	2.187121
3.400000	0.002630	233.784389	0.891348	2.070987
3.500000	-0.002959	246.591503	0.946342	2.157255
3.600000	0.011047	261.859246	0.999024	2.076089
3.700000	0.007272	277.184089	1.047994	2.049739
3.800000	0.006026	296.526105	1.104501	2.086338
3.900000	-0.000994	310.054046	1.149648	2.122097
4.000000	0.008092	325.347861	1.184968	2.014740
4.100000	0.018509	341.045638	1.211699	1.883148
4.200000	0.014553	352.967426	1.259122	1.848930
4.300000	0.008323	365.290019	1.303137	1.886758
4.400000	0.013255	377.028946	1.359670	1.959153
4.500000	0.026999	387.063664	1.354172	1.700242
4.600000	0.024438	403.663970	1.414018	1.731908
4.700000	0.023274	421.211388	1.462036	1.731416
4.800000	0.018482	436.443174	1.517762	1.726879
4.900000	0.022005	452.037276	1.581377	1.784036
5.000000	0.027313	460.822487	1.603603	1.762099
5.100000	0.031901	467.688785	1.643200	1.793732
5.200000	0.035358	468.560682	1.643783	1.610721
5.300000	0.032543	474.342167	1.665918	1.519555
5.400000	0.028622	484.107868	1.649470	1.217996
5.500000	0.026077	495.913570	1.643363	1.210972
5.600000	0.027399	512.169068	1.678354	1.103670
5.700000	0.023093	521.830774	1.687604	0.947585
5.800000	0.037028	531.185423	1.701638	0.771718
5.900000	0.034823	538.462077	1.758404	0.747304
6.000000	0.037176	545.817657	1.796365	0.795739
6.100000	0.033925	554.076591	1.784775	0.593709
6.200000	0.033481	565.152851	1.804584	0.672772
6.300000	0.045771	572.714868	1.808608	0.595911
6.400000	0.037273	583.322643	1.838632	0.778104
6.500000	0.038875	590.337086	1.841310	0.820569
6.600000	0.041118	593.104480	1.880462	0.850138
6.700000	0.029389	601.183416	1.874531	0.780555
6.800000	0.043463	612.766810	1.918224	0.905259
6.900000	0.043270	619.986857	1.955032	0.813422
7.000000	0.042598	632.590775	1.958846	0.685217
7.100000	0.045125	641.987232	1.990388	0.853879
7.200000	0.040717	654.205815	2.005672	0.836438
7.300000	0.041829	668.481805	2.051358	1.008536
7.400000	0.046412	680.808129	2.067605	0.960886
7.500000	0.045742	689.928189	2.075732	0.977820
7.600000	0.051518	697.805283	2.106322	0.933839
7.700000	0.049294	710.723483	2.129824	1.065701
7.800000	0.052741	720.878334	2.154203	0.990187
7.900000	0.048653	727.700345	2.186402	0.973197
8.000000	0.050038	733.406380	2.194535	0.981113
8.100000	0.045617	737.919599	2.180867	0.790432
8.200000	0.056838	744.134171	2.211431	0.862624
8.300000	0.057776	753.293854	2.236876	0.776147
8.400000	0.057003	761.940999	2.262163	0.805533
8.500000	0.058176	771.531016	2.263982	0.788359
8.600000	0.053042	781.740766	2.299462	0.812926
8.700000	0.059584	790.240806	2.306803	0.733205
8.800000	0.068469	800.591858	2.342111	0.783549
8.900000	0.066853	812.037441	2.354549	0.702636
9.000000	0.064897	816.260397	2.368287	0.722257
9.100000	0.059640	820.194207	2.387158	0.866455
9.200000	0.063008	827.154697	2.407858	0.810524
9.300000	0.061894	838.588720	2.430588	0.805815
9.400000	0.064902	844.134697	2.459091	0.827405
9.500000	0.065398	850.925052	2.473929	0.878080
9.600000	0.065714	856.164728	2.479201	0.743331
9.700000	0.068040	863.453851	2.491707	0.779839
9.800000	0.067526	874.220790	2.498875	0.655002
9.900000	0.075975	880.701248	2.546968	0.790792
10.000000	0.069033	885.160457	2.557257	0.798762
10.100000	0.074680	890.470327	2.577009	0.790327
10.200000	0.071745	900.440100	2.561504	0.640973
10.300000	0.071982	907.360050	2.627413	0.828111
10.400000	0.075394	912.233946	2.641573	0.758088
10.500000	0.076131	922.610888	2.645509	0.710364
10.600000	0.076816	928.574088	2.674526	0.817131
10.700000	0.080660	927.658427	2.668995	0.739749
10.800000	0.088289	921.326360	2.699944	0.828954
10.900000	0.083548	914.590158	2.729728	0.777577
11.000000	0.086849	917.431515	2.761571	0.842799
11.100000	0.084126	915.286605	2.755780	0.746944
11.200000	0.080275	911.424492	2.756862	0.823577
11.300000	0.074918	912.697658	2.755300	0.529712
11.400000	0.074436	911.909621	2.756693	0.486493
11.500000	0.084236	909.864852	2.749691	0.439595
11.600000	0.082353	911.325446	2.756052	0.337909
11.700000	0.082067	910.030276	2.766008	0.403984
11.800000	0.092223	909.070115	2.759815	0.262455
11.900000	0.085288	910.281414	2.768276	0.160948
12.000000	0.075298	910.357731	2.762188	0.006237
12.100000	0.081502	911.326375	2.760186	0.019040
12.200000	0.079099	910.084084	2.769818	0.049164
12.300000	0.086660	909.467383	2.765351	0.050013
12.400000	0.078245	908.195004	2.750363	-0.029277
12.500000	0.087195	907.842216	2.757787	0.031421
12.600000	0.086275	909.927311	2.772892	0.067367
12.700000	0.075619	909.541503	2.769145	0.019251
12.800000	0.081748	909.322169	2.752655	-0.028526
12.900000	0.070483	909.454492	2.769257	0.004549
13.000000	0.070671	909.305958	2.771823	0.040840
13.100000	0.082387	907.958677	2.750287	-0.043038
13.200000	0.083199	906.831157	2.771549	0.002637
13.300000	0.080274	907.203940	2.748939	-0.066432
13.400000	0.085739	906.576811	2.746190	-0.013438
13.500000	0.071869	906.490984	2.758043	-0.004317
13.600000	0.082257	906.701750	2.762487	-0.030940
13.700000	0.078715	907.001767	2.765641	-0.028987
13.800000	0.085434	907.787543	2.763530	0.043598
13.900000	0.079215	907.728021	2.769295	0.004082
14.000000	0.076212	907.779512	2.763132	-0.038117
14.100000	0.082203	907.865154	2.770053	0.078306
14.200000	0.085460	905.018859	2.753279	-0.064974
14.300000	0.081801	905.622114	2.768832	0.074318
14.400000	0.080616	907.239587	2.760507	0.058505
14.500000	0.082557	908.199906	2.769426	0.055248
14.600000	0.087484	905.830254	2.748731	-0.055657
14.700000	0.097551	907.600495	2.762287	-0.015116
14.800000	0.102851	907.088458	2.758750	-0.022584
14.900000	0.096728	906.342690	2.774490	0.023833
15.000000	0.090905	905.399053	2.771331	0.031081
15.100000	0.085702	905.195529	2.752337	-0.069085
15.200000	0.108260	905.785644	2.756964	0.010876
15.300000	0.113219	906.134412	2.763691	-0.020963
15.400000	0.112195	904.812730	2.762074	0.001538
15.500000	0.077881	906.401866	2.753614	-0.056433
15.600000	0.072364	902.914681	2.764561	0.061378
15.700000	0.130921	905.403847	2.774992	0.053306
15.800000	-0.199601	905.711586	2.764536	0.027942
15.900000	-1.259875	904.669167	2.771912	-0.015638
16.000000	-2.002831	905.209079	2.778797	0.036715
16.100000	-2.659830	904.820395	2.761154	0.028125
16.200000	-3.080159	905.606587	2.766401	0.044564
16.300000	-3.419979	903.464552	2.773420	0.039244
16.400000	-3.856921	905.982839	2.762342	0.004933
16.500000	-4.392707	904.799560	2.748802	-0.025306
16.600000	-4.813562	904.270341	2.761150	-0.015015
16.700000	-5.091706	903.721096	2.753386	-0.081219
16.800000	-5.642898	904.382642	2.765491	-0.003951
16.900000	-5.771144	904.750526	2.766103	-0.023402
17.000000	-5.711356	906.424204	2.776989	-0.004432
17.100000	-5.592472	904.100015	2.750653	-0.041006
17.200000	-5.288171	904.519290	2.758700	-0.038414
17.300000	-4.859120	904.763864	2.779045	0.025326
17.400000	-4.048023	904.896891	2.757215	-0.025468
17.500000	-3.321531	904.724413	2.767728	0.080338
17.600000	-2.806071	905.446831	2.755695	-0.025443
17.700000	-2.429432	906.208298	2.765625	0.045361
17.800000	-1.724800	905.889096	2.770929	0.031601
17.900000	-0.633135	904.233049	2.756455	-0.039443
18.000000	-0.633461	904.677639	2.774940	-0.008760
18.100000	-1.214806	904.793522	2.767438	0.065006
18.200000	-1.781408	904.009144	2.770171	0.052024
18.300000	-0.611616	906.999177	2.770246	-0.031345
18.400000	0.096322	905.621182	2.777046	0.075206
18.500000	-0.159672	903.356897	2.765357	-0.006879
18.600000	-0.211487	905.825078	2.752304	-0.007674
18.700000	1.057896	904.297803	2.771507	0.023993
18.800000	2.058468	906.205435	2.774122	0.005789
18.900000	-0.635540	906.809086	2.760615	0.027754
19.000000	-0.963937	905.830007	2.777739	-0.006094
19.100000	-2.657715	904.473005	2.774617	0.039621
19.200000	-1.235408	902.640735	2.759727	-0.035584
19.300000	-1.325158	905.252511	2.767451	-0.020426
19.400000	-1.475356	904.732982	2.750157	-0.105351
19.500000	-1.481752	905.095347	2.754295	-0.051109
19.600000	-1.406872	903.983282	2.740183	-0.050211
19.700000	-1.301828	904.404599	2.761179	-0.039583
19.800000	-1.190446	905.152989	2.752776	-0.087780
19.900000	-0.939665	905.370274	2.758975	-0.011185
20.000000	-0.856102	905.471873	2.771759	-0.018985
20.100000	-0.807370	905.330056	2.759909	-0.064309
20.200000	-0.800501	901.717563	2.757966	-0.016363
20.300000	-0.766978	903.815012	2.754875	-0.045237
20.400000	-0.715554	904.821242	2.751150	-0.000558
20.500000	-0.658067	905.072681	2.745165	-0.036567
20.600000	-0.766931	902.402027	2.763336	0.092720
20.700000	-1.229236	903.963219	2.750236	-0.038984
20.800000	-1.262774	904.925609	2.739682	-0.061938
20.900000	-0.898485	906.603280	2.747671	-0.044758
21.000000	-0.822792	905.149650	2.749203	-0.083951
21.100000	-0.779699	905.154250	2.748851	-0.052979
21.200000	-0.998391	902.772334	2.748826	-0.036773
21.300000	-1.152251	904.427194	2.736835	-0.072879
21.400000	-0.998644	905.070000	2.711390	-0.166540
21.500000	0.053612	903.291144	2.700121	-0.183273
21.600000	0.273736	903.577081	2.699226	-0.263697
21.700000	0.451702	902.985367	2.701077	-0.210282
21.800000	0.441809	903.947858	2.725890	-0.056525
21.900000	-1.575865	904.901961	2.704789	-0.186136
22.000000	-1.133375	904.258529	2.698725	-0.207899
22.100000	-3.569320	905.154934	2.718241	-0.128976
22.200000	-3.442319	903.454094	2.627000	-0.480293
22.300000	-2.448521	902.487254	2.519202	-0.915748
22.400000	-3.344810	904.707785	2.564168	-0.614532
22.500000	-2.799409	905.138909	2.584345	-0.496752
22.600000	-2.531504	905.302746	2.607670	-0.378060
22.700000	-2.618614	904.560301	2.599326	-0.420211
22.800000	-2.696085	906.834233	2.607107	-0.492674
22.900000	-2.597684	903.667208	2.596376	-0.446892
23.000000	-2.641933	903.329428	2.596480	-0.428204
23.100000	-2.490946	903.493562	2.589865	-0.533417
23.200000	-2.421330	902.436946	2.598372	-0.160169
23.300000	-2.532124	904.417297	2.606879	0.374925
23.400000	-2.491423	903.953831	2.577251	0.062651
23.500000	-2.445259	901.257777	2.598731	0.065637
23.600000	-2.475572	905.562002	2.584536	-0.095763
23.700000	-2.403686	906.226257	2.604568	0.009395
23.800000	-2.368075	905.686945	2.603559	-0.013832
23.900000	-2.403442	906.087502	2.594323	-0.008218
24.000000	-2.468928	902.781515	2.614901	0.075137
24.100000	-2.429780	902.299573	2.609638	0.083817
24.200000	-2.483473	903.888473	2.619398	0.092095
24.300000	-2.500679	902.462306	2.598118	-0.041164
24.400000	-2.428740	903.715505	2.584560	0.034245
24.500000	-2.429486	902.720648	2.576043	-0.096785
24.600000	-2.392643	903.778626	2.595906	0.039527
24.700000	-2.330355	903.256919	2.585143	-0.066135
24.800000	-2.386302	902.370852	2.582982	-0.085774
24.900000	-2.380003	903.663401	2.610125	0.061452
25.000000	-2.323079	905.410543	2.600971	-0.061281
25.100000	-2.417119	902.849670	2.616562	0.034683
25.200000	-2.399246	903.301896	2.617046	-0.012456
25.300000	-2.330002	902.442325	2.607836	0.039554
25.400000	-2.324059	903.622144	2.592407	0.027381
25.500000	-2.327398	903.929873	2.600776	0.113590
25.600000	-2.312589	904.855982	2.601113	0.017542
25.700000	-2.303006	904.822621	2.602275	0.062973
25.800000	-2.292015	904.715823	2.599046	0.076991
25.900000	-2.288166	903.888212	2.605415	-0.022455
26.000000	-2.294284	903.396149	2.582873	-0.070899
26.100000	-2.321002	902.643583	2.589126	-0.113165
26.200000	-2.280092	904.930552	2.585046	-0.130895
26.300000	-2.284506	903.327251	2.592577	-0.072505
26.400000	-2.290341	904.727513	2.601689	0.042881
26.500000	-2.309650	903.485951	2.597675	-0.018907
26.600000	-2.296591	903.844470	2.599775	0.004603
26.700000	-2.310887	903.364342	2.606560	0.012379
26.800000	-2.405654	903.451770	2.588161	-0.050283
26.900000	-2.424398	904.030195	2.600347	-0.016041
27.000000	-2.358329	904.000727	2.600037	0.066235
27.100000	-2.468976	907.466590	2.607321	0.078043
27.200000	-2.555442	906.436395	2.587954	0.015043
27.300000	-2.101360	913.523418	2.584124	-0.034951
27.400000	-1.505137	936.544987	2.579643	-0.102208
27.500000	-2.182115	953.390997	2.603053	0.025319
27.600000	-2.217188	953.983570	2.609473	0.043596
27.700000	-2.376101	963.856955	2.609741	0.022475
27.800000	-1.249253	972.954129	2.610185	0.079426
27.900000	-1.387576	978.329720	2.627040	0.112847
28.000000	-1.467767	984.584175	2.666963	0.276472
28.100000	-2.109539	993.214568	2.658086	0.203183
28.200000	-1.534893	1000.076981	2.675421	0.362274
28.300000	-2.680597	1005.282921	2.699555	0.477523
28.400000	-2.061587	1012.226963	2.711991	0.558419
28.500000	-1.934749	1015.511693	2.725735	0.512347
28.600000	-2.346087	1024.332947	2.756636	0.604136
28.700000	-2.859825	1031.368363	2.779596	0.705278
28.800000	-2.308015	1038.188995	2.794769	0.770205
28.900000	-3.109945	1045.115147	2.825053	0.829968
29.000000	-3.022281	1050.647417	2.851494	0.768185
29.100000	-2.896148	1052.170860	2.878520	0.910704
29.200000	-2.880945	1055.294718	2.898555	0.934701
29.300000	-2.614650	1063.666497	2.932763	0.970635
29.400000	-2.458405	1066.407572	2.935698	0.931566
29.500000	-2.572409	1070.556992	2.964866	0.994785
29.600000	-2.719413	1073.479557	2.993902	0.990215
29.700000	-2.664480	1078.867338	3.047359	1.114188
29.800000	-2.560282	1076.244833	3.062784	1.118667
29.900000	-2.346956	1082.093415	3.086247	1.090088
30.000000	-2.096929	1083.527362	3.113105	1.090571
30.100000	-1.776490	1086.861993	3.176380	1.240462
30.200000	-1.200555	1090.688444	3.202218	1.264600
30.300000	-0.742524	1092.448080	3.232055	1.249877
30.400000	-0.661304	1095.100861	3.280711	1.435502
30.500000	-0.916223	1096.953149	3.306606	1.423637
30.600000	-1.126037	1098.933357	3.335317	1.421511
30.700000	-0.942295	1102.267535	3.375720	1.369754
30.800000	-0.187400	1103.192935	3.399860	1.406309
30.900000	-0.055186	1106.811943	3.449679	1.518065
31.000000	-0.034862	1107.880862	3.456587	1.429738
31.100000	-0.052645	1111.003015	3.501498	1.364044
31.200000	-0.095353	1113.638414	3.546921	1.428039
31.300000	-0.089809	1111.658316	3.580225	1.454279
31.400000	-0.088021	1113.647173	3.586176	1.276725
31.500000	-0.012440	1120.591267	3.631961	1.355947
31.600000	0.048226	1121.555932	3.666751	1.388549
31.700000	0.037585	1122.014959	3.678694	1.266295
31.800000	0.042716	1120.217126	3.727026	1.364100
31.900000	0.051639	1120.859127	3.757186	1.280319
32.000000	0.016180	1127.775191	3.778422	1.341501
32.100000	0.030872	1128.630567	3.800730	1.255835
32.200000	0.048086	1128.896053	3.812023	1.109016
32.300000	0.077920	1131.073386	3.870899	1.205688
32.400000	0.094577	1134.941406	3.889552	1.269046
32.500000	0.079988	1133.997305	3.919892	1.199020
32.600000	0.076943	1137.740019	3.965265	1.247632
32.700000	0.080586	1138.940194	4.012836	1.384506
32.800000	0.065947	1141.012325	4.037390	1.299346
32.900000	0.080375	1136.910560	4.072751	1.315461
33.000000	0.084038	1142.885287	4.103593	1.354233
33.100000	0.076544	1146.892486	4.130368	1.378296
33.200000	0.067428	1146.404697	4.147042	1.402173
33.300000	0.069528	1146.757459	4.173640	1.262265
33.400000	0.063609	1150.106175	4.208242	1.325085
33.500000	0.066196	1151.117268	4.246129	1.363753
33.600000	0.064250	1151.683195	4.285543	1.334747
33.700000	0.069636	1155.470875	4.333186	1.337825
33.800000	0.072890	1156.099336	4.369273	1.382227
33.900000	0.068933	1157.040822	4.387419	1.317511
34.000000	0.079245	1157.252607	4.408185	1.275338
34.100000	0.072012	1157.550448	4.454796	1.342703
34.200000	0.068117	1159.390921	4.459201	1.299748
34.300000	0.076238	1161.236384	4.500151	1.367299
34.400000	0.073511	1167.476806	4.539441	1.378352
34.500000	0.071499	1167.997131	4.569881	1.351024
34.600000	0.075473	1164.896241	4.614032	1.374832
34.700000	0.072348	1168.392409	4.658902	1.356359
34.800000	0.084308	1170.705308	4.710856	1.422908
34.900000	0.077598	1171.126523	4.742342	1.472890
35.000000	0.075851	1168.425632	4.769290	1.508021
35.100000	0.081078	1167.973179	4.791071	1.411716
35.200000	0.074518	1171.543698	4.812643	1.471278
35.300000	0.076537	1176.093653	4.827634	1.367039
35.400000	0.080461	1178.091716	4.877288	1.404787
35.500000	0.070964	1180.708621	4.905615	1.407176
35.600000	0.071159	1178.242445	4.951003	1.400104
35.700000	0.075639	1180.252308	5.005933	1.456861
35.800000	0.087491	1184.617750	5.031521	1.329422
35.900000	0.071341	1184.144104	5.053054	1.302137
36.000000	0.079334	1185.829606	5.115971	1.443686
36.100000	0.072248	1183.913186	5.153883	1.512591
36.200000	0.082878	1184.610320	5.172913	1.499587
36.300000	0.078406	1189.285538	5.195995	1.532262
36.400000	0.088496	1190.970287	5.230433	1.480912
36.500000	0.076614	1187.225684	5.265743	1.504503
36.600000	0.083010	1190.294608	5.278530	1.363566
36.700000	0.082669	1190.061607	5.339027	1.386107
36.800000	0.074732	1191.085655	5.369328	1.417962
36.900000	0.080237	1193.141967	5.431680	1.572261
37.000000	0.077839	1192.715429	5.460927	1.443424
37.100000	0.075808	1192.331530	5.510609	1.482097
37.200000	0.071926	1194.384114	5.549906	1.567523
37.300000	0.077367	1197.336229	5.589899	1.644131
37.400000	0.063398	1196.686812	5.635296	1.690233
37.500000	0.072063	1195.340899	5.669723	1.680988
37.600000	0.073782	1198.866389	5.700642	1.764676
37.700000	0.065565	1201.205588	5.739801	1.667255
37.800000	0.052236	1200.073698	5.786078	1.741356
37.900000	0.057912	1194.069598	5.843682	1.718947
38.000000	0.043726	1198.356259	5.874871	1.728684
38.100000	0.050103	1199.624610	5.871620	1.512293
38.200000	0.046890	1203.894168	5.917836	1.538100
38.300000	0.049232	1203.263703	5.958749	1.540656
38.400000	0.042245	1204.740838	5.971830	1.402106
38.500000	0.052093	1204.419479	6.011945	1.423824
38.600000	0.045049	1206.114578	6.068330	1.534239
38.700000	0.047720	1204.682975	6.090151	1.462891
38.800000	0.051144	1198.291710	6.133018	1.446035
38.900000	0.050287	1202.977834	6.161681	1.335796
39.000000	0.058403	1205.785643	6.198911	1.345421
39.100000	0.045505	1209.559882	6.245129	1.551041
39.200000	0.060077	1206.155386	6.270352	1.483952
39.300000	0.060340	1206.205808	6.293370	1.391020
39.400000	0.065911	1210.433759	6.331181	1.498371
39.500000	0.068743	1209.305105	6.390907	1.577683
39.600000	0.062359	1205.405166	6.436616	1.534026
39.700000	0.049150	1207.076528	6.457088	1.536990
39.800000	0.061692	1208.507802	6.492008	1.498674
39.900000	0.030218	1208.288982	6.525047	1.512455
40.000000	0.032506	1209.019693	6.568411	1.537074
40.100000	0.050971	1207.734587	6.621767	1.572261
40.200000	0.077692	1207.102502	6.627904	1.483855
40.300000	0.080931	1208.705621	6.663716	1.549958
40.400000	0.079567	1205.569545	6.710277	1.585541
40.500000	0.090263	1206.909226	6.754312	1.521986
40.600000	0.081456	1207.453632	6.782390	1.445459
40.700000	0.068418	1207.953568	6.803906	1.439031
40.800000	0.046760	1204.939909	6.843606	1.468001
40.900000	0.059010	1202.994682	6.848044	1.348834
41.000000	0.061677	1201.129216	6.912105	1.437441
41.100000	0.055472	1198.581921	6.930696	1.292089
41.200000	0.060828	1192.904694	6.993100	1.518454
41.300000	0.065476	1185.807738	7.020918	1.493077
41.400000	0.076316	1178.236847	7.039084	1.362835
41.500000	0.093955	1170.676190	7.092036	1.411697
41.600000	0.077418	1156.146751	7.110707	1.368397
41.700000	0.096680	1140.228374	7.156141	1.475342
41.800000	0.074196	1119.964478	7.181101	1.409959
41.900000	0.058421	1095.937122	7.236134	1.609931
42.000000	0.053430	432.378125	6.915307	0.092778
42.100000	0.051066	4.551985	6.736449	-0.810211
42.200000	0.050714	2.115732	6.813775	-0.750831
42.300000	0.047097	2.549611	6.897134	-0.521342
42.400000	0.026428	1.920448	6.908802	-0.528869
42.500000	0.053536	1.272766	6.922741	-0.712326
42.600000	0.050231	2.238928	6.917782	-0.794492
42.700000	0.035051	1.672642	6.924351	-0.960410
42.800000	0.024820	1.282226	6.936145	-1.021263
42.900000	0.027700	1.110727	6.920010	-1.299508
43.000000	0.025026	-0.540120	6.927290	-0.050999
43.100000	0.025041	1.196068	6.947200	0.889127
43.200000	0.030971	-1.089733	6.932223	0.512220
43.300000	0.024744	-0.233215	6.932578	0.153927
43.400000	0.049026	1.853786	6.945072	0.150217
43.500000	0.036623	2.134366	6.935804	0.064829
