LabVIEW Measurement	
Writer_Version	2
Reader_Version	2
Separator	Tab
Decimal_Separator	.
Multi_Headings	No
X_Columns	One
Time_Pref	Absolute
Operator	trimgus
Date	2022/03/22
Time	13:44:38.4559907913208007813
***End_of_Header***	
	
Notes	X values guaranteed valid only for Extensometer Displacement-mm (Mean)				
Channels	4				
Samples	1	1	1	1	
Date	2022/03/22	2022/03/22	2022/03/22	2022/03/22	
Time	13:44:38.4559907913208007813	13:44:38.4559907913208007813	13:44:38.4559907913208007813	13:44:38.456806182861328125	
Y_Unit_Label	Volts	Volts	Volts	Volts	
X_Dimension	Time	Time	Time	Time	
X0	0.0000000000000000E+0	0.0000000000000000E+0	0.0000000000000000E+0	9.9000000000000005E-2	
Delta_X	0.100000	0.100000	0.100000	0.100000	
***End_of_Header***					
X_Value	Extensometer Displacement-mm (Mean)	Force-N (Mean)	Global Displacement-mm (Mean)	Global Displacement-mm (Mean) 1	Comment
0.000000	-0.002065	-0.576405	-0.004736	-0.026292
0.100000	0.004551	-2.542639	-0.009521	-0.075209
0.200000	0.001296	-1.396022	-0.008627	-0.060023
0.300000	0.004670	-1.344492	-0.003438	-0.039246
0.400000	0.008377	-2.935060	0.009233	0.040807
0.500000	-0.001031	-1.373131	0.000400	-0.051974
0.600000	-0.004034	-0.771408	0.006107	-0.025018
0.700000	0.003989	-1.463889	0.004080	0.012909
0.800000	0.003117	-0.868069	0.009749	0.049864
0.900000	-0.007787	-2.327935	-0.010292	-0.025148
1.000000	-0.000760	0.310372	0.004153	0.041505
1.100000	0.002746	-0.990678	0.006447	0.058436
1.200000	0.009429	-1.305482	-0.005225	0.016619
1.300000	0.001048	-2.126399	0.019413	0.091992
1.400000	0.005681	-1.092944	0.002138	-0.030776
1.500000	0.001722	4.548627	-0.006445	-0.023554
1.600000	0.005883	3.715190	-0.002813	-0.043978
1.700000	0.002963	-1.916041	-0.004495	-0.030692
1.800000	0.005718	-4.135236	0.008105	-0.005863
1.900000	-0.001651	-1.568985	-0.014460	-0.016053
2.000000	0.007254	-3.625713	-0.004289	-0.032608
2.100000	0.006343	-2.347792	0.011181	0.014543
2.200000	-0.002667	2.123903	0.041238	0.168956
2.300000	0.009443	13.219223	0.139281	0.463854
2.400000	0.004613	24.673540	0.181665	0.701268
2.500000	0.017661	33.020209	0.205982	0.824017
2.600000	0.004608	44.363634	0.235792	0.946325
2.700000	0.013231	53.173126	0.253923	1.006246
2.800000	0.009853	65.227115	0.298013	1.133731
2.900000	0.016612	79.684111	0.337272	1.378989
3.000000	0.005865	91.751453	0.351243	1.391411
3.100000	0.013567	104.375457	0.359940	1.368550
3.200000	0.011160	121.282017	0.402011	1.426282
3.300000	0.016638	136.017717	0.430816	1.154530
3.400000	0.015964	148.512597	0.474234	1.142979
3.500000	0.011050	163.520545	0.501741	1.166682
3.600000	0.015221	179.736830	0.548219	1.216889
3.700000	0.015738	198.634046	0.588891	1.319662
3.800000	0.025995	215.957706	0.626381	1.291898
3.900000	0.021984	228.461454	0.675574	1.327166
4.000000	0.015904	244.904201	0.707200	1.392598
4.100000	0.019519	258.251042	0.761183	1.574671
4.200000	0.018487	278.363257	0.793888	1.541748
4.300000	0.023975	294.822857	0.824860	1.541366
4.400000	0.018031	313.694617	0.872343	1.567609
4.500000	0.019450	335.828828	0.908102	1.597082
4.600000	0.028371	354.172650	0.961386	1.624342
4.700000	0.024392	369.033761	1.005841	1.633568
4.800000	0.035599	380.721269	1.048750	1.658343
4.900000	0.023601	396.792500	1.071655	1.555191
5.000000	0.029060	411.909320	1.105786	1.571372
5.100000	0.026631	428.180707	1.144245	1.506285
5.200000	0.033866	449.541640	1.175970	1.502248
5.300000	0.040496	469.151086	1.219496	1.550613
5.400000	0.024123	485.181575	1.262953	1.537222
5.500000	0.025217	500.500244	1.309171	1.577391
5.600000	0.035510	516.477981	1.345531	1.505134
5.700000	0.031344	535.457052	1.373753	1.453227
5.800000	0.028736	552.841764	1.427791	1.485732
5.900000	0.027881	565.857037	1.474345	1.581524
6.000000	0.033871	576.981248	1.509005	1.579867
6.100000	0.034339	588.055053	1.555048	1.612661
6.200000	0.041292	604.573966	1.606666	1.688159
6.300000	0.043349	619.678905	1.650478	1.698417
6.400000	0.047840	636.488345	1.698433	1.708623
6.500000	0.053444	649.931353	1.750406	1.729961
6.600000	0.054717	656.182323	1.786515	1.732482
6.700000	0.052846	665.026817	1.812246	1.727271
6.800000	0.059786	673.933067	1.858832	1.694806
6.900000	0.063888	686.639098	1.870371	1.562056
7.000000	0.074913	692.655223	1.907368	1.569086
7.100000	0.095170	690.736525	1.948679	1.541359
7.200000	0.114518	688.069833	1.985153	1.486878
7.300000	0.129118	689.265988	2.012258	1.427943
7.400000	0.156143	684.939608	2.034441	1.325711
7.500000	0.183115	690.771221	2.080296	1.295884
7.600000	0.201864	691.724476	2.095014	1.214403
7.700000	0.211846	691.952126	2.130805	1.244178
7.800000	0.226715	693.687033	2.158783	1.182861
7.900000	0.247131	696.283882	2.175571	1.197472
8.000000	0.262544	700.327187	2.191286	1.117809
8.100000	0.267377	706.515592	2.208841	1.029238
8.200000	0.294976	714.640360	2.244506	1.017243
8.300000	0.307261	718.057596	2.278627	1.044677
8.400000	0.319826	724.105899	2.308055	1.072015
8.500000	0.335629	729.346668	2.322850	0.959984
8.600000	0.347981	737.649749	2.362832	1.051885
8.700000	0.365756	747.201511	2.391894	1.036593
8.800000	0.381631	753.026426	2.403266	0.947592
8.900000	0.388658	759.257919	2.443422	1.055749
9.000000	0.414533	757.458945	2.472040	1.096234
9.100000	0.421604	761.901423	2.473106	1.041880
9.200000	0.436905	770.055155	2.529226	1.118527
9.300000	0.446236	778.173886	2.518460	0.943662
9.400000	0.455095	785.045392	2.567474	1.019366
9.500000	0.465627	790.033131	2.584608	1.027608
9.600000	0.471393	794.182697	2.633069	1.063407
9.700000	0.493045	799.397262	2.629333	0.930870
9.800000	0.517596	806.349808	2.657586	1.005299
9.900000	0.519777	810.771948	2.706708	1.030800
10.000000	0.540159	817.806050	2.710979	0.940866
10.100000	0.561903	819.842845	2.745842	1.073295
10.200000	0.570108	825.291803	2.779054	0.979405
10.300000	0.584709	826.105293	2.810325	1.147774
10.400000	0.603881	832.438978	2.816687	0.979404
10.500000	0.609789	845.469584	2.858278	1.069230
10.600000	0.624553	849.677230	2.896716	1.037422
10.700000	0.651480	838.022483	2.890299	1.025668
10.800000	0.648252	824.453188	2.911707	0.999498
10.900000	0.646266	817.257263	2.973745	1.046295
11.000000	0.656615	812.838513	2.989965	1.098399
11.100000	0.661149	810.568776	2.979302	0.917113
11.200000	0.664771	809.780787	2.985860	0.822507
11.300000	0.665892	807.146681	2.991677	0.713469
11.400000	0.662254	804.360183	2.997252	0.708600
11.500000	0.650563	804.491729	3.001818	0.577408
11.600000	0.614135	803.837849	3.007941	0.444404
11.700000	0.659927	800.070515	2.995212	0.400628
11.800000	0.505258	801.603059	3.000430	0.359430
11.900000	-1.131832	799.769227	3.006948	0.138948
12.000000	-4.233715	796.292927	3.006608	0.064057
12.100000	-5.418384	797.012974	3.008553	0.110759
12.200000	-6.220342	797.643579	3.001288	0.070024
12.300000	-7.641885	794.225266	3.003245	0.040286
12.400000	-7.599432	794.601409	3.023330	0.101588
12.500000	-7.598539	793.334782	3.024964	0.090162
12.600000	-7.612984	792.013751	3.016578	0.030264
12.700000	-7.480354	790.467269	3.013571	0.074091
12.800000	-7.508035	790.554731	3.025586	0.101075
12.900000	-7.587978	791.247662	3.018890	0.044140
13.000000	-7.692399	790.608758	3.017029	0.049331
13.100000	-7.689059	789.341675	3.022372	0.051277
13.200000	-7.770922	789.744091	3.013999	0.045617
13.300000	-7.897538	788.040600	3.020541	0.070028
13.400000	-7.833648	788.429875	3.037392	0.058564
13.500000	-7.844502	787.189219	3.019603	-0.023323
13.600000	-7.246688	785.756013	3.004077	-0.047869
13.700000	-2.230607	786.861033	3.006512	-0.021214
13.800000	1.030447	787.335568	3.021200	-0.022789
13.900000	1.198987	785.736355	3.034237	0.062452
14.000000	1.283210	786.643086	3.021756	0.014529
14.100000	0.960355	786.123088	3.013522	-0.027619
14.200000	0.761838	785.771832	3.005099	-0.037420
14.300000	0.657115	787.445125	3.013883	-0.026253
14.400000	0.480038	785.467919	3.035803	-0.008996
14.500000	0.405912	784.415115	3.003643	-0.059858
14.600000	0.387046	782.386758	3.013499	0.033048
14.700000	0.379626	782.487026	3.001379	-0.017321
14.800000	0.455890	784.419619	3.002347	-0.074165
14.900000	-1.645173	784.975124	3.021683	-0.053280
15.000000	-4.501107	782.916235	3.009341	-0.045658
15.100000	-2.167653	785.320991	3.016849	0.002440
15.200000	-2.915115	786.721580	2.998773	-0.014813
15.300000	-4.687239	785.504784	3.011779	-0.005729
15.400000	-2.965145	786.756284	3.027984	-0.036055
15.500000	-1.909188	783.516005	3.009859	0.024129
15.600000	-1.734646	784.037759	3.009585	-0.011731
15.700000	0.890262	783.664897	3.013572	0.042009
15.800000	-3.782517	785.417597	3.011554	0.036604
15.900000	-5.185448	783.688737	3.004725	-0.055409
16.000000	-5.556767	786.320434	3.001989	-0.039024
16.100000	-5.988563	783.344836	3.013825	-0.004742
16.200000	-5.864336	784.720967	3.020868	0.079965
16.300000	-5.963171	782.309753	3.005374	-0.027985
16.400000	-5.877759	785.001457	3.031136	0.021680
16.500000	-5.572683	781.128494	3.011042	-0.002645
16.600000	-4.961760	781.755892	3.003030	-0.019659
16.700000	-4.850868	783.860490	3.010457	-0.013488
16.800000	-4.879210	784.848707	3.009634	-0.006868
16.900000	-4.692388	781.800998	3.010511	0.017196
17.000000	-4.590248	782.407348	2.999934	-0.002882
17.100000	-4.583972	782.287102	3.010545	-0.013363
17.200000	-5.321950	781.561050	3.007730	-0.053741
17.300000	-6.065256	784.844125	3.009902	0.016218
17.400000	-5.641980	780.757604	3.020584	-0.036728
17.500000	-5.717307	783.713267	3.033592	0.091272
17.600000	-4.613689	781.301206	3.009603	0.019803
17.700000	-3.389128	781.247521	3.019364	0.036355
17.800000	-1.207131	784.372012	3.016547	0.025764
17.900000	1.319154	782.897681	3.030369	0.080414
18.000000	1.473803	784.739385	3.025560	0.099485
18.100000	1.574524	781.236146	3.008212	-0.006752
18.200000	1.271278	781.951839	3.024506	0.059055
18.300000	-0.150957	783.206307	3.020323	0.052763
18.400000	-0.271296	782.228342	3.013066	-0.040084
18.500000	-0.229032	782.549313	3.010780	-0.084928
18.600000	-0.345989	782.698479	3.010491	0.001530
18.700000	-0.372891	781.413054	3.007097	-0.048594
18.800000	-0.408582	782.258595	3.006352	-0.036276
18.900000	-0.388127	781.114042	3.015046	-0.065147
19.000000	-0.311536	782.865781	3.013470	-0.046827
19.100000	-0.282673	779.755565	3.005526	-0.008392
19.200000	-0.812197	781.921005	3.023373	0.003323
19.300000	-3.062310	780.465886	3.011741	-0.043074
19.400000	-2.772481	783.747793	3.020212	0.034656
19.500000	-2.630714	783.688947	3.004075	-0.036862
19.600000	-2.470242	783.382527	3.027137	0.068828
19.700000	0.435745	780.131763	3.014717	0.036803
19.800000	1.308860	782.067042	3.002930	-0.025013
19.900000	0.562102	781.474635	3.023446	0.035357
20.000000	-0.279939	780.873338	3.001092	-0.046784
20.100000	-0.233167	782.127841	3.023447	0.065360
20.200000	-0.141354	779.408991	3.016906	-0.021162
20.300000	0.134286	782.085524	3.015284	0.014488
20.400000	0.066246	782.169429	3.013037	-0.023512
20.500000	0.078523	780.739588	3.001372	-0.008223
20.600000	0.088401	779.804997	3.014699	-0.051470
20.700000	0.097447	782.152063	2.999654	-0.067702
20.800000	0.077306	779.658429	3.012630	0.045620
20.900000	0.121192	779.249487	3.031055	0.034852
21.000000	0.188894	779.354200	3.018804	0.061777
21.100000	0.178374	780.156858	3.012632	-0.035099
21.200000	0.138552	779.565134	3.013985	-0.018814
21.300000	0.133662	783.212852	2.994546	-0.083477
21.400000	0.136408	782.088714	3.021581	0.040774
21.500000	0.123428	779.859188	2.989908	-0.050294
21.600000	0.060436	779.024667	3.006689	-0.033612
21.700000	-0.013464	779.511935	3.026229	0.106807
21.800000	0.070477	780.651614	3.026805	0.061105
21.900000	0.075203	780.319071	3.012877	-0.078160
22.000000	0.063208	783.133569	3.031380	0.056035
22.100000	0.053832	782.588662	3.017845	0.014677
22.200000	0.067793	779.711942	3.024634	0.041225
22.300000	0.069447	781.533465	3.014337	0.082534
22.400000	0.074870	780.199364	3.009162	-0.059460
22.500000	0.076968	779.163760	3.010335	0.085215
22.600000	0.069328	778.287797	3.013769	0.031675
22.700000	0.079267	777.753040	3.009329	-0.066254
22.800000	0.080465	779.552062	3.002606	-0.101964
22.900000	0.085519	779.803320	3.002853	-0.031490
23.000000	0.083681	779.032211	3.013509	-0.073800
23.100000	0.077430	781.799979	3.004986	-0.047021
23.200000	0.077149	783.499332	2.977196	-0.183921
23.300000	0.084177	790.615228	2.983335	-0.128458
23.400000	0.087470	815.409578	2.980679	-0.106267
23.500000	0.089534	842.671746	2.996101	-0.056774
23.600000	0.081606	868.185563	3.038047	0.089075
23.700000	0.082565	878.337844	3.080733	0.272754
23.800000	0.082529	884.374043	3.097488	0.373413
23.900000	0.080328	887.037637	3.134301	0.505253
24.000000	0.074049	893.928634	3.172666	0.629251
24.100000	0.080173	900.175441	3.197049	0.744553
24.200000	0.088778	909.886772	3.251581	1.070782
24.300000	0.077221	917.153065	3.293102	1.216105
24.400000	0.087514	920.397806	3.324121	1.332392
24.500000	0.075027	922.943904	3.361943	1.438809
24.600000	0.080011	927.800624	3.403044	1.438533
24.700000	0.084318	931.446777	3.448356	1.442667
24.800000	0.077070	936.065188	3.469275	1.460236
24.900000	0.076428	939.666321	3.508636	1.466579
25.000000	0.069136	946.926489	3.549060	1.478370
25.100000	0.075058	948.240802	3.566643	1.456388
25.200000	0.079805	949.165696	3.595776	1.353993
25.300000	0.072994	956.080877	3.608420	1.241925
25.400000	0.076943	965.879048	3.682081	1.405710
25.500000	0.076660	971.732537	3.728565	1.439467
25.600000	0.084050	979.520542	3.760482	1.398794
25.700000	0.078465	979.999900	3.823624	1.476322
25.800000	0.080377	983.096950	3.846298	1.482150
25.900000	0.074684	987.197395	3.865273	1.410663
26.000000	0.084891	996.681245	3.924398	1.461533
26.100000	0.072637	1006.671417	3.952944	1.517326
26.200000	0.070787	1005.483490	4.008072	1.614184
26.300000	0.070958	1010.241787	4.047661	1.727434
26.400000	0.074789	1012.273521	4.082150	1.581237
26.500000	0.078502	1018.018755	4.105681	1.477850
26.600000	0.079627	1019.246455	4.147399	1.524820
26.700000	0.074107	1017.475478	4.172861	1.375507
26.800000	0.080307	1020.870482	4.194626	1.362124
26.900000	0.088138	1029.594401	4.238623	1.465905
27.000000	0.067134	1035.957208	4.280819	1.404790
27.100000	0.071094	1037.672883	4.312824	1.412725
27.200000	0.072104	1042.009644	4.335132	1.293443
27.300000	0.078429	1044.962862	4.380415	1.306365
27.400000	0.076819	1046.932221	4.427451	1.358106
27.500000	0.066572	1049.107110	4.437781	1.301179
27.600000	0.077675	1050.739559	4.457763	1.224551
27.700000	0.073958	1053.991897	4.491947	1.256673
27.800000	0.075613	1056.456552	4.503125	1.208771
27.900000	0.079639	1059.142020	4.540326	1.183585
28.000000	0.076739	1061.436964	4.558650	1.098714
28.100000	0.073299	1069.038056	4.601567	1.135165
28.200000	0.081097	1074.224021	4.612754	1.091112
28.300000	0.081858	1076.489986	4.661653	1.104294
28.400000	0.076189	1078.163626	4.676149	0.974081
28.500000	0.077368	1077.464026	4.705304	1.059656
28.600000	0.076511	1078.621999	4.736652	1.089581
28.700000	0.078520	1076.259997	4.750793	1.014060
28.800000	0.076461	1079.495799	4.763146	1.034855
28.900000	0.067859	1086.927232	4.793835	0.992840
29.000000	0.076404	1087.448273	4.817199	1.013624
29.100000	0.079756	1087.947924	4.847656	0.964269
29.200000	0.079348	1086.893049	4.867229	1.002245
29.300000	0.078704	1095.925189	4.870704	0.824636
29.400000	0.077206	1104.919341	4.918948	0.946781
29.500000	0.079794	1103.451427	4.967328	1.027094
29.600000	0.073348	1107.441904	4.990469	1.001513
29.700000	0.079404	1111.211087	5.020711	1.058046
29.800000	0.080690	1115.030883	5.067654	1.186645
29.900000	0.077640	1121.696801	5.086473	1.153090
30.000000	0.071895	1123.897528	5.148632	1.300010
30.100000	0.074015	1129.166820	5.174813	1.287922
30.200000	0.083796	1130.018836	5.223068	1.394100
30.300000	0.078420	1127.862849	5.251596	1.491683
30.400000	0.083839	1130.184986	5.270674	1.389442
30.500000	0.074907	1131.998010	5.302021	1.318295
30.600000	0.075636	1131.530806	5.312597	1.265909
30.700000	0.069070	1136.180061	5.349355	1.288885
30.800000	0.070430	1141.284879	5.404651	1.325553
30.900000	0.073018	1143.643885	5.413445	1.282857
31.000000	0.081249	1141.812302	5.451645	1.197553
31.100000	0.077875	1147.453702	5.500984	1.278648
31.200000	0.081835	1151.557873	5.544991	1.265638
31.300000	0.076919	1151.057056	5.581417	1.293226
31.400000	0.077106	1155.459144	5.608566	1.328156
31.500000	0.073886	1154.915470	5.633400	1.300084
31.600000	0.069679	1155.294430	5.676666	1.425003
31.700000	0.080242	1159.344403	5.698284	1.373438
31.800000	0.086585	1160.409597	5.758487	1.385012
31.900000	0.082494	1160.851177	5.793284	1.499500
32.000000	0.078708	1165.045694	5.813847	1.417550
32.100000	0.070875	1169.855076	5.860326	1.411899
32.200000	0.074220	1171.492820	5.901497	1.401726
32.300000	0.070078	1169.882641	5.924685	1.351702
32.400000	0.076234	1170.310680	5.974891	1.438118
32.500000	0.080367	1169.943115	5.989185	1.396400
32.600000	0.076133	1169.403655	6.015631	1.334670
32.700000	0.077446	1167.501465	6.037735	1.342377
32.800000	0.079786	1173.133375	6.084407	1.275990
32.900000	0.069292	1182.818528	6.132764	1.334347
33.000000	0.070980	1182.292020	6.161109	1.358438
33.100000	0.081739	1184.705624	6.190861	1.305622
33.200000	0.078484	1182.894288	6.245328	1.348565
33.300000	0.077008	1180.576139	6.265811	1.341455
33.400000	0.071126	1186.234226	6.307932	1.304689
33.500000	0.077068	1188.743743	6.322137	1.313035
33.600000	0.070618	1186.557934	6.369981	1.388685
33.700000	0.077588	1192.613997	6.393187	1.387888
33.800000	0.073962	1192.466846	6.450444	1.442099
33.900000	0.071255	1197.233357	6.490012	1.405601
34.000000	0.075532	1197.539129	6.515571	1.401030
34.100000	0.067273	1202.165140	6.548050	1.393522
34.200000	0.070317	1206.385395	6.590244	1.359306
34.300000	0.072112	1204.236096	6.635893	1.451842
34.400000	0.073851	1200.880409	6.659045	1.387649
34.500000	0.076986	1204.100100	6.682661	1.410785
34.600000	0.070515	1202.049949	6.731892	1.423156
34.700000	0.075059	1204.271899	6.758052	1.431017
34.800000	0.072752	1210.937044	6.810697	1.422238
34.900000	0.074831	1208.385917	6.840011	1.374484
35.000000	0.074305	1211.837661	6.880378	1.426681
35.100000	0.076229	1210.358054	6.933048	1.516616
35.200000	0.080106	1217.505021	6.966001	1.473917
35.300000	0.076937	1216.303561	6.991718	1.389587
35.400000	0.077459	1217.205284	7.051151	1.546831
35.500000	0.078342	1219.885019	7.067120	1.508478
35.600000	0.070664	1223.893378	7.139619	1.600082
35.700000	0.078324	1219.570371	7.151516	1.553452
35.800000	0.072760	1225.888124	7.176021	1.434203
35.900000	0.080422	1223.149239	7.197027	1.398108
36.000000	0.081108	1225.123836	7.246884	1.442715
36.100000	0.071260	1223.633166	7.272599	1.337416
36.200000	0.082874	1226.158849	7.302058	1.321553
36.300000	0.079419	1225.365848	7.338345	1.370995
36.400000	0.069925	1226.388909	7.367223	1.232452
36.500000	0.079020	1228.485764	7.383646	1.251468
36.600000	0.077482	1227.498169	7.419604	1.103157
36.700000	0.078502	1227.816717	7.456621	1.189817
36.800000	0.083808	1232.003696	7.483768	1.209449
36.900000	0.075952	1229.227129	7.524401	1.287137
37.000000	0.084208	1233.907098	7.550989	1.197236
37.100000	0.071964	1232.329555	7.579521	1.211457
37.200000	0.078927	1234.903774	7.619675	1.244498
37.300000	0.083282	1231.978935	7.630535	1.141815
37.400000	0.076289	1236.531361	7.670718	1.202030
37.500000	0.074802	1238.411109	7.735235	1.365707
37.600000	0.075999	1235.077480	7.763385	1.352199
37.700000	0.076099	1231.689544	7.785227	1.300387
37.800000	0.070714	1236.141986	7.817582	1.310321
37.900000	0.070874	1241.578482	7.861004	1.319378
38.000000	0.080287	1237.529617	7.898281	1.359983
38.100000	0.075241	1238.276341	7.920564	1.347264
38.200000	0.079207	1237.800191	7.948766	1.290370
38.300000	0.076360	1239.240104	7.978262	1.373460
38.400000	0.082804	1242.146859	8.003147	1.293294
38.500000	0.069270	1239.423707	8.049710	1.250593
38.600000	0.074614	1240.011796	8.079127	1.239636
38.700000	0.075303	1241.133895	8.109443	1.268808
38.800000	0.082674	1249.758191	8.149662	1.303940
38.900000	0.065856	1246.069164	8.202786	1.342387
39.000000	0.079923	1239.826222	8.222280	1.279133
39.100000	0.069704	1242.946835	8.246542	1.270394
39.200000	0.071284	1243.680239	8.286362	1.330598
39.300000	0.076075	1245.032431	8.331819	1.385209
39.400000	0.082763	1247.737227	8.359881	1.407754
39.500000	0.079509	1245.937578	8.414390	1.424764
39.600000	0.071260	1244.019971	8.445426	1.439391
39.700000	0.084563	1246.692046	8.467905	1.409597
39.800000	0.069961	1248.269400	8.519800	1.457789
39.900000	0.075633	1246.672011	8.554030	1.386519
40.000000	0.081879	1246.830049	8.568528	1.352191
40.100000	0.073593	1249.512246	8.605225	1.410999
40.200000	0.075760	1250.855747	8.648445	1.421057
40.300000	0.070892	1251.360689	8.688417	1.395286
40.400000	0.077451	1247.327120	8.743807	1.510941
40.500000	0.081442	1247.373678	8.764694	1.382466
40.600000	0.081278	1250.283115	8.812476	1.437888
40.700000	0.072972	1250.796973	8.858728	1.536924
40.800000	0.075696	1252.393466	8.888621	1.441092
40.900000	0.074758	1249.783353	8.939809	1.519102
41.000000	0.077443	1249.451754	8.963061	1.554459
41.100000	0.085899	1250.074355	8.996810	1.534631
41.200000	0.071341	1251.332826	9.043731	1.553473
41.300000	0.079920	1248.767015	9.092002	1.594500
41.400000	0.077533	1250.924434	9.125218	1.494567
41.500000	0.084098	1252.737409	9.148977	1.504905
41.600000	0.071499	1252.346232	9.203650	1.537656
41.700000	0.076114	1252.569134	9.231367	1.464147
41.800000	0.077079	1247.746555	9.281705	1.550633
41.900000	0.074449	1247.761402	9.314823	1.471945
42.000000	0.067090	1246.508938	9.342319	1.484680
42.100000	0.077124	1248.898409	9.373429	1.483716
42.200000	0.072717	1249.549194	9.426569	1.504547
42.300000	0.081039	1249.014238	9.431019	1.335460
42.400000	0.071360	1248.906227	9.466941	1.339268
42.500000	0.073115	1250.144793	9.509107	1.419620
42.600000	0.070217	1249.132406	9.551128	1.368415
42.700000	0.072698	1250.044754	9.584236	1.385716
42.800000	0.072493	1248.524499	9.634278	1.384894
42.900000	0.077779	1249.552589	9.664772	1.374484
43.000000	0.074025	1247.262192	9.707216	1.429598
43.100000	0.065150	1240.858129	9.764848	1.535234
43.200000	0.079165	1239.562079	9.796029	1.459516
43.300000	0.080448	1236.070242	9.817970	1.518609
43.400000	0.075617	1231.732674	9.843425	1.480047
43.500000	0.075751	1231.137026	9.880579	1.455647
43.600000	0.081019	1228.699104	9.923715	1.465365
43.700000	0.072653	1228.760442	9.935459	1.379461
43.800000	0.072128	1223.707094	9.975472	1.347013
43.900000	0.085438	1218.340424	9.983154	1.247022
44.000000	0.069678	1216.996386	10.023176	1.243120
44.100000	0.075566	1210.739171	10.053844	1.138455
44.200000	0.076008	1204.061850	10.093288	1.167594
44.300000	0.069515	1197.721069	10.113919	1.157969
44.400000	0.074403	1186.588697	10.139581	1.168349
44.500000	0.076506	1179.550363	10.174398	1.152179
44.600000	0.074281	1168.033925	10.236422	1.234262
44.700000	0.076652	1158.228498	10.262521	1.278006
44.800000	0.077641	1140.432007	10.300560	1.273668
44.900000	0.068989	1121.970534	10.331416	1.376434
45.000000	0.081674	1106.270245	10.367623	1.343124
45.100000	0.077455	1087.399265	10.420318	1.445676
45.200000	0.086127	1061.362423	10.452660	1.406429
45.300000	0.078475	1018.465999	10.485628	1.464008
45.400000	0.075546	983.893718	10.531060	1.531279
45.500000	0.086447	942.695964	10.552222	1.492085
45.600000	0.076335	871.982210	10.596515	1.411265
45.700000	0.079555	254.337153	10.609519	1.382085
45.800000	0.067946	-15.370190	10.550251	0.981096
45.900000	0.071019	-18.107023	10.578859	0.967773
46.000000	0.070093	-16.402200	10.570430	0.821615
46.100000	0.069960	-17.403348	10.573039	0.596241
46.200000	0.067598	-17.014212	10.569452	0.456923
46.300000	0.074714	-16.824619	10.577143	0.370814
46.400000	0.075842	-18.511629	10.578579	0.192883
46.500000	0.071952	-16.904949	10.587673	0.138812
46.600000	0.071428	-19.391833	10.579662	-0.054672
