LabVIEW Measurement	
Writer_Version	2
Reader_Version	2
Separator	Tab
Decimal_Separator	.
Multi_Headings	No
X_Columns	One
Time_Pref	Absolute
Operator	tlstroud
Date	2022/03/22
Time	13:43:45.2286372184753417969
***End_of_Header***	
	
Notes	X values guaranteed valid only for Extensometer Displacement-mm (Mean)				
Channels	4				
Samples	1	1	1	1	
Date	2022/03/22	2022/03/22	2022/03/22	2022/03/22	
Time	13:43:45.2286372184753417969	13:43:45.2286372184753417969	13:43:45.2286372184753417969	13:43:45.229705810546875	
Y_Unit_Label	Volts	Volts	Volts	Volts	
X_Dimension	Time	Time	Time	Time	
X0	0.0000000000000000E+0	0.0000000000000000E+0	0.0000000000000000E+0	9.9000000000000005E-2	
Delta_X	0.100000	0.100000	0.100000	0.100000	
***End_of_Header***					
X_Value	Extensometer Displacement-mm (Mean)	Force-N (Mean)	Global Displacement-mm (Mean)	Global Displacement-mm (Mean) 1	Comment
0.000000	0.005787	-1.068545	0.010724	0.058079
0.100000	0.005408	0.370557	-0.005918	-0.030548
0.200000	0.005536	2.202663	-0.029889	-0.112113
0.300000	0.006108	0.430312	0.001700	-0.061364
0.400000	0.005936	1.619435	0.002965	-0.032011
0.500000	0.001113	0.204259	-0.010803	-0.007514
0.600000	0.000597	1.280044	0.003246	0.050130
0.700000	0.008790	4.028271	-0.013339	0.027970
0.800000	0.005778	6.849732	0.006367	-0.011407
0.900000	0.007900	10.513462	-0.013803	-0.051897
1.000000	0.006095	8.818502	0.006962	-0.011722
1.100000	0.003966	9.759555	0.052945	0.162255
1.200000	-0.002026	9.198051	0.100600	0.376258
1.300000	0.001280	4.585932	0.134458	0.391796
1.400000	0.002065	3.566364	0.126216	0.355234
1.500000	0.001771	3.212455	0.140418	0.440651
1.600000	0.005581	2.246699	0.138095	0.389046
1.700000	-0.005052	5.940729	0.159197	0.498223
1.800000	0.002371	9.755474	0.168968	0.480023
1.900000	0.007463	12.601954	0.169051	0.528450
2.000000	0.002578	14.560762	0.204554	0.573391
2.100000	0.009467	16.370599	0.247076	0.571943
2.200000	0.009509	16.424400	0.306340	0.596329
2.300000	0.008682	19.052503	0.383412	0.718056
2.400000	0.008654	22.811399	0.436115	0.902309
2.500000	0.009506	35.865084	0.472301	0.966987
2.600000	0.000411	51.868990	0.471572	0.974748
2.700000	0.006688	67.985365	0.449443	0.843942
2.800000	0.010279	87.979510	0.480350	0.906176
2.900000	0.005201	106.026695	0.483544	0.914594
3.000000	0.003636	125.003282	0.496402	0.859027
3.100000	0.002704	148.254352	0.519486	0.790240
3.200000	0.016659	171.146514	0.542586	0.695600
3.300000	0.010531	193.780607	0.563250	0.534565
3.400000	0.010749	216.795367	0.598626	0.471266
3.500000	0.015651	239.108060	0.650813	0.514706
3.600000	0.013932	265.592766	0.678805	0.596418
3.700000	0.017706	297.013194	0.712681	0.770396
3.800000	0.017019	330.547761	0.763237	0.821034
3.900000	0.009888	356.424721	0.775581	0.855420
4.000000	0.017279	379.253439	0.826784	0.954604
4.100000	0.024762	404.558986	0.854007	0.977736
4.200000	0.024723	438.012488	0.902459	1.037573
4.300000	0.019803	470.675569	0.959021	1.157453
4.400000	0.019201	504.283486	0.991377	1.148669
4.500000	0.033918	532.117576	1.007169	1.038786
4.600000	0.031705	557.081481	1.048100	1.078488
4.700000	0.030482	583.304889	1.067974	1.033045
4.800000	0.038027	611.806269	1.104173	0.992487
4.900000	0.036352	645.632368	1.150125	1.090823
5.000000	0.042441	675.724590	1.191667	1.063841
5.100000	0.040929	711.687446	1.223935	1.080388
5.200000	0.056447	747.821959	1.255598	1.037468
5.300000	0.066682	779.469624	1.292576	0.968067
5.400000	0.067532	813.035937	1.337555	1.004087
5.500000	0.056018	842.686875	1.349661	1.003476
5.600000	0.066686	875.267529	1.397392	1.017604
5.700000	0.063689	906.592621	1.410091	1.000179
5.800000	0.078685	937.467380	1.444247	0.990840
5.900000	0.076398	971.691409	1.472397	0.940637
6.000000	0.081720	1006.429940	1.512863	0.937212
6.100000	0.088805	1042.335509	1.545997	0.936983
6.200000	0.095371	1077.526226	1.572969	0.923488
6.300000	0.092635	1112.156903	1.615380	0.944397
6.400000	0.103876	1144.178078	1.654870	0.930302
6.500000	0.103462	1174.298943	1.676856	0.947262
6.600000	0.108034	1202.631071	1.704705	0.897324
6.700000	0.120744	1234.363434	1.722595	0.908002
6.800000	0.121555	1257.779278	1.743463	0.873454
6.900000	0.150812	1256.889092	1.783517	0.904150
7.000000	0.175195	1262.494594	1.823345	0.910664
7.100000	0.201487	1270.451953	1.862599	0.923338
7.200000	0.220441	1271.279581	1.914379	0.995658
7.300000	0.245249	1275.797843	1.952274	0.976860
7.400000	0.272538	1279.221569	1.989047	0.970896
7.500000	0.296738	1284.554685	2.023546	1.019305
7.600000	0.332268	1289.895068	2.067637	1.051715
7.700000	0.363487	1294.417681	2.097185	1.092702
7.800000	0.392861	1300.784951	2.134620	1.141106
7.900000	0.418849	1303.115621	2.161581	1.099886
8.000000	0.440178	1309.443659	2.210265	1.126434
8.100000	0.475614	1314.815241	2.239945	1.102216
8.200000	0.503226	1318.336909	2.275314	1.049560
8.300000	0.529715	1321.347281	2.303111	1.029427
8.400000	0.544906	1329.579058	2.334287	1.007153
8.500000	0.567958	1331.855015	2.388702	1.059999
8.600000	0.601992	1335.668274	2.426376	1.049173
8.700000	0.623274	1336.941942	2.452775	1.029955
8.800000	0.642725	1341.190155	2.509124	1.095212
8.900000	0.668459	1348.184075	2.531661	1.081613
9.000000	0.697359	1352.752276	2.565438	1.035629
9.100000	0.722723	1355.895432	2.588216	1.012753
9.200000	0.747792	1357.094304	2.649133	1.092040
9.300000	0.767427	1363.845233	2.699103	1.150780
9.400000	0.801133	1365.875567	2.725540	1.140372
9.500000	0.826132	1366.456763	2.751091	1.054952
9.600000	0.843132	1367.940003	2.796953	1.084375
9.700000	0.871828	1377.030646	2.832192	1.109099
9.800000	0.900408	1380.691033	2.867374	1.042840
9.900000	0.927787	1381.858976	2.915070	1.111831
10.000000	0.954028	1381.466119	2.961480	1.155136
10.100000	0.969680	1385.430728	2.991238	1.179044
10.200000	0.998750	1386.555084	3.031101	1.113558
10.300000	1.018426	1388.838125	3.068953	1.078269
10.400000	1.041043	1392.175815	3.100742	1.090507
10.500000	1.076573	1394.657824	3.131841	1.111197
10.600000	1.101959	1395.017825	3.195810	1.161612
10.700000	1.119567	1397.284774	3.225132	1.149565
10.800000	1.140957	1398.653146	3.256258	1.129697
10.900000	1.168455	1399.349565	3.315517	1.174233
11.000000	1.201173	1401.593563	3.345198	1.112984
11.100000	1.211286	1404.960383	3.390795	1.159349
11.200000	1.244606	1407.210971	3.422283	1.145928
11.300000	1.272414	1404.808638	3.470364	1.167873
11.400000	1.302555	1410.538281	3.509743	1.194299
11.500000	1.325806	1410.562441	3.552379	1.224037
11.600000	1.350501	1410.756585	3.611247	1.211094
11.700000	1.379349	1409.633842	3.633731	1.191598
11.800000	1.397509	1410.842996	3.665084	1.193399
11.900000	1.429900	1415.092557	3.702422	1.126775
12.000000	1.453759	1413.372971	3.747128	1.176012
12.100000	1.476747	1413.333924	3.769047	1.103337
12.200000	1.505008	1414.055527	3.813157	1.134578
12.300000	1.529179	1416.687671	3.855032	1.126393
12.400000	1.554553	1417.096708	3.894146	1.119922
12.500000	1.588724	1412.876869	3.932306	1.113146
12.600000	1.609749	1412.606303	3.964863	1.030190
12.700000	1.621113	1411.985615	3.989624	1.033414
12.800000	1.631086	1392.266342	4.014636	1.022315
12.900000	1.641799	1382.740212	4.051575	1.019074
13.000000	1.635321	1375.512096	4.103794	1.034570
13.100000	1.648697	1373.841053	4.103412	0.980550
13.200000	1.634081	1370.474554	4.117141	0.893747
13.300000	1.644343	1368.475570	4.084522	0.670290
13.400000	1.645115	1368.962538	4.093884	0.583687
13.500000	1.646249	1366.169402	4.090276	0.467414
13.600000	1.685070	1364.588321	4.084318	0.350426
13.700000	1.676932	1365.165832	4.091696	0.303077
13.800000	1.645947	1364.142299	4.106051	0.269281
13.900000	1.638678	1362.918781	4.106481	0.162686
14.000000	1.638701	1361.457357	4.089176	-0.038319
14.100000	1.670365	1359.039273	4.099450	-0.007816
14.200000	1.645719	1360.219628	4.102614	-0.044527
14.300000	1.648778	1359.016299	4.078840	-0.018064
14.400000	1.675187	1358.991998	4.105704	0.037354
14.500000	1.539986	1357.818381	4.102283	0.029463
14.600000	1.351044	1357.838676	4.091681	0.023833
14.700000	0.209316	1356.903430	4.114444	0.064347
14.800000	-0.464089	1356.140723	4.093683	-0.036958
14.900000	-0.698626	1356.233814	4.092302	-0.040124
15.000000	-0.595666	1356.220980	4.099738	0.036554
15.100000	-0.570437	1354.718164	4.106245	0.011284
15.200000	-0.444879	1352.520898	4.090156	-0.031117
15.300000	-0.575828	1353.846543	4.093012	0.038812
15.400000	-0.657220	1352.152110	4.101563	-0.008200
15.500000	-0.734642	1353.078407	4.084617	-0.052675
15.600000	-0.788537	1353.254149	4.093657	0.004623
15.700000	-0.465305	1351.836193	4.110654	-0.012194
15.800000	0.685593	1350.688628	4.104145	0.034219
15.900000	1.188072	1350.519980	4.096319	0.007802
16.000000	1.424546	1352.172599	4.111259	0.035018
16.100000	1.285867	1351.766721	4.102074	-0.010890
16.200000	1.266407	1352.337754	4.102831	0.032516
16.300000	0.473965	1352.872118	4.106886	0.043741
16.400000	0.349289	1351.749558	4.105486	0.006540
16.500000	0.381747	1350.136681	4.099917	0.048177
16.600000	0.494719	1350.778583	4.122951	0.086197
16.700000	0.652293	1351.078747	4.101187	-0.026626
16.800000	0.725601	1352.568363	4.107164	0.007349
16.900000	0.697416	1350.709586	4.107089	0.031185
17.000000	0.752418	1359.903467	4.127079	0.038862
17.100000	0.807484	1393.710600	4.108859	0.029816
17.200000	0.834077	1414.978718	4.088259	-0.040728
17.300000	0.840776	1413.599907	4.110245	0.004250
17.400000	0.831917	1414.038127	4.153358	0.137305
17.500000	0.828727	1414.752331	4.171533	0.202931
17.600000	0.834599	1413.332792	4.203836	0.235877
17.700000	0.841405	1407.202412	4.236869	0.390503
17.800000	0.841057	1400.714118	4.270312	0.474201
17.900000	0.838214	1395.332941	4.282057	0.511019
18.000000	0.833705	1391.075613	4.309261	0.526773
18.100000	0.834492	1375.427416	4.376849	0.771820
18.200000	0.834338	1347.749582	4.428067	0.980437
18.300000	0.838837	1328.124779	4.436611	0.956356
18.400000	0.837763	1306.494832	4.486143	0.970169
18.500000	0.830337	1274.426826	4.526884	1.032314
18.600000	0.829151	1232.088969	4.561260	1.042510
18.700000	0.839342	1174.986826	4.632098	1.150526
18.800000	0.841747	1052.690559	4.674415	1.173801
18.900000	0.889630	20.908033	4.741642	1.333869
19.000000	0.891812	-12.085120	4.781174	1.378615
19.100000	0.899563	-11.649101	4.780264	1.183477
19.200000	0.891380	-9.893654	4.796227	1.078282
19.300000	0.887872	-10.575923	4.773264	0.982328
19.400000	0.889460	-12.805001	4.791576	0.894948
19.500000	0.894601	-12.814310	4.788775	0.764167
19.600000	0.893690	-12.590016	4.796374	0.692252
19.700000	0.885990	-9.541198	4.792455	0.474844
19.800000	0.892655	-11.922401	4.798246	0.365166
19.900000	0.894593	-12.930357	4.783374	0.131530
20.000000	0.899947	-10.615861	4.759553	-0.051541
20.100000	0.893706	-11.463471	4.660908	-0.343848
20.200000	0.891413	-11.418070	4.450992	-0.970854
20.300000	0.888088	-11.718932	4.187705	-1.705375
20.400000	0.890009	-10.641579	4.287693	-1.470583
20.500000	0.891831	-11.941541	4.190127	-1.709322
20.600000	0.895296	-12.056028	3.702066	-3.169205
20.700000	0.884617	-10.852977	3.821429	-2.853888
20.800000	0.898456	-11.476950	3.879653	-2.649697
20.900000	0.897599	-12.321641	3.870631	-2.677621
21.000000	0.891538	-7.726086	3.915208	-2.470086
21.100000	0.885611	-11.214358	3.741224	-2.653572
21.200000	0.883242	-11.641060	3.480896	-2.865847
21.300000	0.890102	-12.441316	3.520914	-1.959627
21.400000	0.892548	-11.288599	3.680592	-1.768681
21.500000	0.893777	-11.481818	3.697518	-1.477722
21.600000	0.885688	-10.690253	3.892498	0.507158
21.700000	0.893975	-13.569672	3.934437	0.366725
21.800000	0.884814	-12.531565	3.934334	0.128051
21.900000	0.893434	-13.399440	3.935269	0.208658
22.000000	0.891019	-10.737438	3.935556	0.061506
22.100000	0.888945	-10.494599	3.922125	0.480771
22.200000	0.890294	-9.711119	3.921946	1.281606
22.300000	0.890365	-11.385556	3.929855	1.207504
22.400000	0.885891	-10.171166	3.933275	0.742933
22.500000	0.888079	-11.625411	3.933687	0.696912
22.600000	0.887634	-14.053699	3.932830	0.136368
22.700000	0.887720	-11.463068	3.932187	-0.003904
22.800000	0.885473	-12.267466	3.927112	-0.023185
22.900000	0.887500	-13.028732	3.929008	-0.019120
