LabVIEW Measurement	
Writer_Version	2
Reader_Version	2
Separator	Tab
Decimal_Separator	.
Multi_Headings	No
X_Columns	One
Time_Pref	Absolute
Operator	tlstroud
Date	2022/03/22
Time	13:25:12.7037930488586425781
***End_of_Header***	
	
Notes	X values guaranteed valid only for Extensometer Displacement-mm (Mean)				
Channels	4				
Samples	1	1	1	1	
Date	2022/03/22	2022/03/22	2022/03/22	2022/03/22	
Time	13:25:12.7037930488586425781	13:25:12.7037930488586425781	13:25:12.7037930488586425781	13:25:12.7060689926147460938	
Y_Unit_Label	Volts	Volts	Volts	Volts	
X_Dimension	Time	Time	Time	Time	
X0	0.0000000000000000E+0	0.0000000000000000E+0	0.0000000000000000E+0	9.9000000000000005E-2	
Delta_X	0.100000	0.100000	0.100000	0.100000	
***End_of_Header***					
X_Value	Extensometer Displacement-mm (Mean)	Force-N (Mean)	Global Displacement-mm (Mean)	Global Displacement-mm (Mean) 1	Comment
0.000000	-0.000561	0.362943	-0.009708	-0.021896
0.100000	0.004078	2.904985	-0.009067	-0.030781
0.200000	-0.004894	-1.333443	0.005636	0.036094
0.300000	8.843095E-5	2.615581	0.021273	0.034049
0.400000	-0.001525	1.256499	0.010449	-0.031582
0.500000	-0.008521	0.793170	0.001876	-0.014140
0.600000	-0.001536	-0.047042	0.014931	0.005482
0.700000	0.002509	-0.496261	-0.012620	-0.077086
0.800000	-0.002507	1.850233	0.016633	0.063429
0.900000	0.001985	5.653654	0.028633	0.091399
1.000000	-0.001213	4.465400	0.009948	0.060697
1.100000	-0.002589	6.569244	0.004475	0.037762
1.200000	-0.002485	9.476361	0.002356	-0.008172
1.300000	0.000791	11.164462	0.001531	-0.055783
1.400000	-0.002118	13.667081	0.013544	0.007798
1.500000	-0.005512	13.996621	0.010046	0.022726
1.600000	-0.000907	16.828377	-0.001945	-0.046924
1.700000	-0.003502	17.242386	0.022222	0.094111
1.800000	0.003266	20.810304	0.011078	-0.017430
1.900000	-0.004116	21.499773	0.025949	0.003839
2.000000	-0.012713	23.807911	0.016389	0.010094
2.100000	-0.003633	25.260919	0.009740	0.018286
2.200000	-0.004384	26.547253	0.054380	0.141591
2.300000	-0.007126	25.108648	0.094497	0.258505
2.400000	0.000719	24.137684	0.168651	0.436245
2.500000	0.001078	25.663183	0.223062	0.601469
2.600000	-0.004121	22.425897	0.262746	0.750327
2.700000	-0.002671	17.823745	0.296729	0.782502
2.800000	-0.003700	16.070673	0.304090	0.833092
2.900000	0.002698	15.787592	0.304636	0.787560
3.000000	-0.000205	17.688391	0.302397	0.817229
3.100000	-0.000803	19.446557	0.306537	0.840208
3.200000	-0.006284	22.476968	0.339177	0.816920
3.300000	0.008126	23.678192	0.331309	0.679639
3.400000	-0.003872	26.668546	0.379034	0.601610
3.500000	0.002175	30.644329	0.436238	0.601760
3.600000	0.002477	34.299339	0.528900	0.756056
3.700000	-0.000770	34.639850	0.651211	0.995335
3.800000	0.002265	36.542728	0.787040	1.364916
3.900000	-0.003770	50.515621	0.830505	1.497370
4.000000	-0.000745	65.307376	0.835985	1.517722
4.100000	0.002846	81.176731	0.816972	1.453973
4.200000	0.003287	96.524713	0.836870	1.414805
4.300000	0.010164	110.235074	0.858237	1.501789
4.400000	0.005062	126.566999	0.882129	1.434906
4.500000	-0.002897	145.107178	0.911057	1.358483
4.600000	0.004393	163.250543	0.942383	1.181052
4.700000	0.011283	179.980694	0.967515	0.917182
4.800000	0.010999	200.026431	1.011237	0.645157
4.900000	0.010921	212.991620	1.035590	0.582545
5.000000	0.012128	230.349296	1.059565	0.627552
5.100000	0.019091	244.227438	1.091051	0.778469
5.200000	0.013116	263.099463	1.136179	0.853208
5.300000	0.014238	287.719471	1.164222	0.865723
5.400000	0.022718	311.475555	1.226902	0.977243
5.500000	0.015016	332.168260	1.269123	1.016650
5.600000	0.012789	352.666583	1.296048	1.010675
5.700000	0.024752	374.628116	1.337035	1.051655
5.800000	0.020860	400.772976	1.356317	0.985675
5.900000	0.022954	425.108457	1.403847	1.047703
6.000000	0.023472	447.251356	1.447482	1.100367
6.100000	0.027437	471.783135	1.481043	1.115397
6.200000	0.019644	500.310332	1.504164	1.043485
6.300000	0.035893	527.500102	1.551760	1.103867
6.400000	0.024484	558.808065	1.607514	1.084800
6.500000	0.028528	580.971277	1.617377	0.995827
6.600000	0.035015	606.007236	1.654348	1.017538
6.700000	0.040731	636.250674	1.690967	1.009589
6.800000	0.039563	667.492218	1.730181	1.062850
6.900000	0.048499	698.793896	1.760099	1.011069
7.000000	0.059696	730.231211	1.789811	0.981794
7.100000	0.064180	763.833066	1.839575	1.013788
7.200000	0.076124	785.868350	1.853244	0.996534
7.300000	0.080008	800.299053	1.890959	0.968832
7.400000	0.084783	816.289095	1.918621	0.889662
7.500000	0.109671	836.491002	1.962837	0.977006
7.600000	0.127346	843.736214	2.001878	0.994804
7.700000	0.153530	845.387599	2.042343	1.002193
7.800000	0.170937	848.511472	2.069398	0.959158
7.900000	0.192611	851.899377	2.072546	0.894619
8.000000	0.211010	855.428143	2.122590	0.944662
8.100000	0.227236	859.954101	2.160945	0.918059
8.200000	0.240203	866.649950	2.194549	0.969445
8.300000	0.271558	874.547132	2.213685	0.923833
8.400000	0.292607	884.959105	2.252420	0.945767
8.500000	0.320476	895.317882	2.288464	0.931971
8.600000	0.344233	906.699257	2.320639	0.900394
8.700000	0.364013	914.764932	2.352514	0.885799
8.800000	0.395603	928.710879	2.388960	0.912754
8.900000	0.418962	937.867551	2.422855	0.992052
9.000000	0.438506	944.016812	2.457908	0.956721
9.100000	0.460131	953.387154	2.480940	0.911426
9.200000	0.465012	966.529770	2.517802	0.924552
9.300000	0.496645	977.193201	2.556901	0.968230
9.400000	0.519008	981.689127	2.589707	0.967054
9.500000	0.534045	990.981434	2.625243	0.956116
9.600000	0.547031	998.010187	2.654762	0.958801
9.700000	0.567127	1005.138750	2.692627	0.958135
9.800000	0.585420	1012.537543	2.726640	0.963986
9.900000	0.603956	1018.552972	2.745249	0.924376
10.000000	0.615725	1027.822445	2.778506	0.906900
10.100000	0.640221	1038.628292	2.807904	0.933534
10.200000	0.663395	1046.565774	2.855715	0.957325
10.300000	0.676900	1050.843402	2.894218	0.965161
10.400000	0.702123	1058.672140	2.938628	0.990194
10.500000	0.712138	1063.048012	2.978638	1.004856
10.600000	0.738500	1072.784937	3.032716	1.071426
10.700000	0.757762	1079.955587	3.058928	1.050293
10.800000	0.786292	1086.581426	3.100451	1.061477
10.900000	0.804678	1088.621711	3.121766	1.070995
11.000000	0.827760	1097.566913	3.171536	1.119887
11.100000	0.836920	1100.659666	3.198294	1.110192
11.200000	0.866453	1106.374687	3.237556	1.084740
11.300000	0.892585	1114.255722	3.291002	1.130133
11.400000	0.902882	1115.562155	3.321118	1.091761
11.500000	0.921804	1119.798909	3.343415	1.042002
11.600000	0.936238	1123.211218	3.373110	0.973743
11.700000	0.956461	1125.271448	3.413527	1.003275
11.800000	0.980117	1134.385714	3.438827	0.970839
11.900000	0.994483	1137.922616	3.473528	0.992510
12.000000	1.022607	1146.489384	3.525290	1.012450
12.100000	1.033840	1149.676321	3.566869	1.044619
12.200000	1.058679	1152.193128	3.604570	1.050535
12.300000	1.080834	1156.816810	3.641899	0.995172
12.400000	1.113426	1160.773221	3.659833	0.966867
12.500000	1.129937	1165.476470	3.699477	1.013712
12.600000	1.156432	1165.929241	3.743443	1.049075
12.700000	1.181379	1171.536305	3.783619	1.054321
12.800000	1.188729	1175.013160	3.831663	1.117376
12.900000	1.227650	1180.520144	3.860963	1.107262
13.000000	1.250922	1183.242326	3.901562	1.067875
13.100000	1.271279	1185.017351	3.948014	1.091569
13.200000	1.297156	1189.642734	3.969106	1.035835
13.300000	1.311573	1191.962009	4.001407	1.025988
13.400000	1.328357	1194.172579	4.036840	1.069505
13.500000	1.355777	1195.944371	4.083203	1.090201
13.600000	1.376985	1193.298438	4.105583	1.034406
13.700000	1.381653	1178.363272	4.115250	0.952774
13.800000	1.373413	1171.653642	4.143139	0.878202
13.900000	1.368432	1165.234782	4.190361	0.943950
14.000000	1.372814	1162.760223	4.213210	0.889604
14.100000	1.365812	1161.115972	4.204891	0.730798
14.200000	1.369811	1158.810594	4.229628	0.746010
14.300000	1.372848	1155.354874	4.213803	0.609464
14.400000	1.367636	1155.773650	4.211173	0.499598
14.500000	1.372640	1154.858518	4.210431	0.370448
14.600000	1.373005	1153.276771	4.210906	0.303917
14.700000	1.370346	1151.075063	4.198196	0.230193
14.800000	1.414673	1152.056846	4.200587	0.173459
14.900000	1.419934	1151.108038	4.222147	0.092026
15.000000	1.455299	1149.252631	4.206856	-0.018480
15.100000	1.363096	1147.862651	4.223776	0.058954
15.200000	1.266878	1148.569534	4.212044	-0.053582
15.300000	0.987694	1146.626959	4.203217	-0.030279
15.400000	0.762882	1144.883476	4.199632	-0.034351
15.500000	0.637743	1144.183839	4.205540	-0.014902
15.600000	0.641590	1144.629445	4.220929	0.025022
15.700000	0.869627	1142.546102	4.202476	0.014578
15.800000	0.862813	1143.771750	4.208699	0.026389
15.900000	0.318913	1141.542588	4.206616	-0.046588
16.000000	0.103103	1142.519635	4.226919	0.057729
16.100000	-0.582317	1141.608516	4.211082	-0.035479
16.200000	1.434588	1139.738765	4.207849	-0.008509
16.300000	1.438365	1140.156945	4.211081	0.017229
16.400000	1.232951	1143.217744	4.213238	0.040082
16.500000	1.399287	1142.189252	4.214316	0.027685
16.600000	1.466313	1142.843062	4.198642	-0.063850
16.700000	1.640462	1141.289251	4.216654	0.041549
16.800000	1.587109	1141.911238	4.212207	0.009392
16.900000	1.487395	1139.804832	4.202766	-0.009878
17.000000	1.428549	1140.125210	4.213506	-0.039599
17.100000	1.324704	1142.474250	4.213021	0.003719
17.200000	0.800955	1140.603177	4.189835	-0.054992
17.300000	0.903382	1146.310159	4.207628	-0.005816
17.400000	1.055337	1180.442128	4.200903	-0.036962
17.500000	1.040651	1205.782542	4.221727	0.019007
17.600000	1.034600	1209.235148	4.229786	0.087855
17.700000	1.040181	1210.460611	4.255777	0.110749
17.800000	1.034032	1213.700982	4.283262	0.201185
17.900000	1.034768	1220.963813	4.312180	0.302518
18.000000	1.037338	1224.256863	4.370733	0.446979
18.100000	1.041226	1219.827347	4.405965	0.547827
18.200000	1.042948	1223.474672	4.419234	0.647966
18.300000	1.046483	1226.189539	4.450305	0.686260
18.400000	1.036819	1228.509367	4.504941	0.864339
18.500000	1.033773	1232.556547	4.542545	0.909716
18.600000	1.049129	1233.980958	4.578453	0.992062
18.700000	1.045852	1237.401863	4.628660	1.055410
18.800000	1.043333	1238.322275	4.662909	1.078023
18.900000	1.040735	1236.791553	4.699898	1.109067
19.000000	1.037742	1241.093012	4.730226	1.026601
19.100000	1.040134	1242.688676	4.761525	1.006939
19.200000	1.040698	1248.877440	4.799066	1.084991
19.300000	1.040431	1249.862059	4.827307	1.071391
19.400000	1.046327	1250.627678	4.871780	1.047656
19.500000	1.044041	1250.707400	4.917069	1.066756
19.600000	1.046884	1251.625903	4.956215	1.070317
19.700000	1.047830	1248.789525	4.986133	1.024845
19.800000	1.043258	1251.533821	5.019529	1.016612
19.900000	1.053694	1258.416476	5.052326	0.999751
20.000000	1.042123	1261.399085	5.120882	1.108210
20.100000	1.034514	1263.405205	5.157058	1.128233
20.200000	1.050656	1263.432410	5.215513	1.180470
20.300000	1.055997	1263.526092	5.256807	1.228566
20.400000	1.043634	1260.263771	5.265165	1.113674
20.500000	1.046752	1261.103822	5.314921	1.135195
20.600000	1.049187	1263.247075	5.363908	1.163451
20.700000	1.050367	1265.085789	5.375505	1.108218
20.800000	1.052433	1270.515294	5.420284	1.139024
20.900000	1.049418	1271.537166	5.469734	1.187570
21.000000	1.041574	1273.738495	5.535518	1.180880
21.100000	1.047414	1273.053338	5.570261	1.174596
21.200000	1.048839	1270.889574	5.598610	1.094534
21.300000	1.052786	1265.716968	5.640888	1.091322
21.400000	1.047832	1272.141117	5.679493	1.182068
21.500000	1.045181	1276.204402	5.720920	1.158048
21.600000	1.039462	1276.595646	5.771440	1.155269
21.700000	1.040375	1275.966791	5.832963	1.302156
21.800000	1.047448	1276.019789	5.860921	1.252919
21.900000	1.051330	1276.164261	5.907812	1.250348
22.000000	1.046641	1275.673791	5.952622	1.187576
22.100000	1.044736	1277.475970	5.985653	1.185396
22.200000	1.046885	1279.616230	6.018185	1.195928
22.300000	1.048086	1282.575730	6.072004	1.224405
22.400000	1.051838	1283.668183	6.107957	1.218133
22.500000	1.048918	1282.601933	6.165682	1.262868
22.600000	1.055230	1281.248251	6.220021	1.283767
22.700000	1.053536	1281.034825	6.249570	1.183253
22.800000	1.047197	1280.511070	6.263541	1.151558
22.900000	1.054246	1278.949708	6.285357	1.074851
23.000000	1.049637	1283.556906	6.360721	1.159938
23.100000	1.048146	1285.632607	6.369686	1.098239
23.200000	1.049455	1286.006528	6.411051	1.111015
23.300000	1.046505	1285.231504	6.465495	1.124807
23.400000	1.042789	1281.671838	6.488488	1.087029
23.500000	1.051506	1283.691640	6.521988	1.016766
23.600000	1.046864	1285.122002	6.564967	0.978717
23.700000	1.046975	1286.216526	6.596377	0.990560
23.800000	1.051384	1286.700051	6.653317	1.105300
23.900000	1.038696	1284.693283	6.664440	1.078914
24.000000	1.045364	1287.832254	6.718412	1.023810
24.100000	1.048922	1286.259762	6.763904	1.117163
24.200000	1.050965	1285.107092	6.818618	1.160910
24.300000	1.050605	1284.225071	6.841148	1.069298
24.400000	1.049922	1288.828220	6.884927	1.125494
24.500000	1.045676	1285.666285	6.915107	1.121140
24.600000	1.048821	1285.080542	6.944382	1.084223
24.700000	1.045417	1284.394060	6.973060	1.069625
24.800000	1.040820	1288.062784	7.004698	1.001627
24.900000	1.043188	1292.454239	7.046969	1.089559
25.000000	1.053298	1287.590949	7.099241	1.083709
25.100000	1.052503	1288.501817	7.153023	1.109124
25.200000	1.052143	1287.472193	7.186031	1.046231
25.300000	1.048539	1284.842862	7.237155	1.128319
25.400000	1.044167	1283.931671	7.261079	1.070469
25.500000	1.042724	1286.318468	7.293417	1.076577
25.600000	1.047082	1286.185695	7.316320	1.057553
25.700000	1.038098	1284.720451	7.339373	1.044946
25.800000	1.044659	1288.957004	7.385847	1.085368
25.900000	1.051773	1290.748176	7.433684	1.100861
26.000000	1.043653	1291.136981	7.480319	1.086523
26.100000	1.048916	1288.500282	7.532295	1.077890
26.200000	1.046935	1287.640796	7.587270	1.143330
26.300000	1.041158	1284.205052	7.614934	1.074997
26.400000	1.041990	1287.781433	7.660417	1.138681
26.500000	1.047605	1286.060803	7.701331	1.156640
26.600000	1.043819	1285.229883	7.757427	1.254644
26.700000	1.043340	1287.086909	7.799724	1.308189
26.800000	1.050693	1286.278187	7.844077	1.300508
26.900000	1.045146	1285.192170	7.889500	1.300464
27.000000	1.040232	1286.813375	7.922718	1.260907
27.100000	1.048255	1281.384151	7.964067	1.228203
27.200000	1.048366	1284.049597	7.985197	1.138805
27.300000	1.045128	1284.777924	8.020607	1.154181
27.400000	1.052730	1287.450709	8.081563	1.197886
27.500000	1.043374	1283.390571	8.119841	1.193639
27.600000	1.049635	1284.418031	8.195212	1.243471
27.700000	1.046237	1283.976230	8.210430	1.171481
27.800000	1.040581	1284.490026	8.271785	1.220998
27.900000	1.046821	1282.188163	8.304158	1.180799
28.000000	1.050184	1282.322472	8.332413	1.166135
28.100000	1.044649	1283.247369	8.380765	1.181136
28.200000	1.046126	1281.506396	8.447316	1.314269
28.300000	1.050279	1278.938350	8.462798	1.260401
28.400000	1.047322	1278.700843	8.510437	1.222653
28.500000	1.053804	1279.227715	8.538185	1.193580
28.600000	1.048027	1281.385800	8.577155	1.088466
28.700000	1.046007	1279.551738	8.622592	1.175720
28.800000	1.040248	1278.021044	8.648700	1.074618
28.900000	1.051365	1277.029818	8.688950	1.092214
29.000000	1.044610	1277.155656	8.719735	1.101649
29.100000	1.044310	1275.910936	8.776134	1.135827
29.200000	1.045647	1275.297092	8.815216	1.041941
29.300000	1.039454	1275.920023	8.850659	1.104724
29.400000	1.047320	1277.053922	8.899990	1.105138
29.500000	1.047550	1271.394753	8.945839	1.161111
29.600000	1.044515	1270.019975	8.989644	1.176290
29.700000	1.041799	1268.809707	9.038377	1.177654
29.800000	1.043496	1268.845014	9.066262	1.192126
29.900000	1.046634	1263.190275	9.109138	1.192555
30.000000	1.045319	1259.798695	9.148367	1.227567
30.100000	1.044473	1255.342926	9.187112	1.166274
30.200000	1.044661	1251.863379	9.201647	1.104002
30.300000	1.048543	1247.821620	9.257111	1.150772
30.400000	1.051236	1238.596858	9.290303	1.119692
30.500000	1.040701	1230.215628	9.331607	1.098898
30.600000	1.049598	1214.751412	9.361337	1.054490
30.700000	1.038981	1199.737202	9.435966	1.137647
30.800000	1.047793	1184.687499	9.463406	1.126020
30.900000	1.045176	1166.055610	9.507317	1.135392
31.000000	1.047180	1144.451610	9.542936	1.118903
31.100000	1.045439	1107.747182	9.602107	1.180893
31.200000	1.054437	1074.252254	9.629753	1.222088
31.300000	1.053180	1035.660757	9.680630	1.208019
31.400000	1.048688	966.454628	9.726319	1.230866
31.500000	1.054447	350.594464	9.907035	1.620826
31.600000	1.057852	1.339357	10.185841	2.332448
31.700000	1.044561	2.013846	10.209962	2.211235
31.800000	1.058103	2.966111	10.171075	2.016179
31.900000	1.058136	3.095731	10.189718	1.948948
32.000000	1.057949	3.160692	10.190114	1.845151
32.100000	1.052901	-0.211321	10.196557	1.699880
32.200000	1.060785	0.312726	10.186965	1.582304
32.300000	1.055803	1.154419	10.201315	1.490984
32.400000	1.066930	2.970271	10.197795	1.353425
32.500000	1.061468	1.797708	10.192018	0.833840
32.600000	1.055294	3.887626	10.189507	0.035119
32.700000	1.054373	0.035146	10.212649	0.001419
32.800000	1.056862	0.535068	10.190837	0.061192
32.900000	1.051567	2.347329	10.189633	-7.964314E-5
33.000000	1.054801	1.517932	10.202651	0.031803
33.100000	1.054516	2.672454	10.206401	0.025896
33.200000	1.060289	1.567187	10.178504	-0.016590
33.300000	1.060634	2.726586	10.176267	-0.074750
33.400000	1.059898	-0.801728	10.174188	-0.066167
33.500000	1.048637	1.386166	10.185354	-0.017855
33.600000	1.056500	2.835303	10.197345	0.018437
33.700000	1.052993	1.713668	10.188750	-0.068519
33.800000	1.053804	0.812959	10.200278	0.023974
